TimeStamp,Delta_TP9,Delta_AF7,Delta_AF8,Delta_TP10,Theta_TP9,Theta_AF7,Theta_AF8,Theta_TP10,Alpha_TP9,Alpha_AF7,Alpha_AF8,Alpha_TP10,Beta_TP9,Beta_AF7,Beta_AF8,Beta_TP10,Gamma_TP9,Gamma_AF7,Gamma_AF8,Gamma_TP10,RAW_TP9,RAW_AF7,RAW_AF8,RAW_TP10,AUX_RIGHT,Accelerometer_X,Accelerometer_Y,Accelerometer_Z,Gyro_X,Gyro_Y,Gyro_Z,HeadBandOn,HSI_TP9,HSI_AF7,HSI_AF8,HSI_TP10,Battery,Elements
2021-04-25 22:31:28.024,,,,,,,,,,,,,,,,,,,,,,,,,,,,,,,,,,,,,,/muse/elements/blink
2021-04-25 22:31:28.863,0.8094512352824583,1.190154299307129,0.9984863650339312,0.8553058013737721,0.4246881130407915,1.158853910290606,0.5340816902711628,0.6057773581016518,0.4655714877193979,0.9163606055087254,0.6104339916203845,0.682189735337041,0.5067426177885572,0.09171968596862527,0.2408635930462844,0.6784538622008957,0.1773807422105444,-0.2905559039372553,-0.1953253737812875,0.4526438031292382,850.5860805860806,781.2820512820513,782.0879120879121,841.3186813186813,867.9120879120879,-0.119751,0.058228,0.992126,4.501038,-2.474823,-1.824341,1,1,1,1,1,45.000000
2021-04-25 22:31:29.872,1.159170158389395,1.40388520915316,1.395245816956411,1.713663185293806,0.8940668028385972,1.25422664587636,0.8792344638270407,1.379349899912881,0.9659077384375424,0.9241934906768118,0.6046095663956788,1.216977184898539,0.6382510734807492,0.1448175424269437,0.1203415777122998,0.5791176892782827,0.04988101009160107,-0.01575719615141967,-0.09288243573414763,0.4020955095272906,804.6520146520147,773.2234432234433,791.3553113553114,813.5164835164835,707.948717948718,-0.104248,0.044006,1.001282,1.203766,-2.011261,-7.880554,1,1,1,1,1,45.000000
2021-04-25 22:31:30.178,,,,,,,,,,,,,,,,,,,,,,,,,,,,,,,,,,,,,,/muse/elements/blink
2021-04-25 22:31:30.863,1.218697941444462,1.41147751186893,1.487196149439963,1.787172501012998,0.9732770849370647,1.051955817377408,0.9706772136741907,1.448208849024765,0.9659077384375424,0.8822132343062057,0.734363240628334,1.216977184898539,0.7207845679899524,0.2741128198158161,0.07691030987445822,0.6202981254945099,0.08476939628461687,-0.08483172571617162,-0.09026002798103627,0.4535753191056803,809.4871794871796,795.7875457875458,782.893772893773,799.4139194139194,716.007326007326,-0.152283,0.013062,0.994141,7.693634,-4.074860,6.818848,1,1,1,1,1,45.000000
2021-04-25 22:31:31.058,,,,,,,,,,,,,,,,,,,,,,,,,,,,,,,,,,,,,,/muse/elements/blink
2021-04-25 22:31:31.862,1.305542683417029,1.543285077056003,1.175030714856738,1.83861471155236,1.082513493053003,1.09380294971448,0.7511766115762232,1.501395929611522,0.9616020526733988,1.071247111777,0.7033819125613743,1.216977184898539,0.7999680143353909,0.2252560696161336,0.1865724714999829,0.6463886860475424,0.176587598748531,-0.04726436840086052,-0.07763845278794941,0.4948397255127877,849.7802197802198,758.7179487179487,836.4835164835165,874.7619047619048,807.8754578754579,-0.165466,-0.019897,0.980835,4.022522,-4.994507,4.957123,1,1,1,1,1,45.000000
2021-04-25 22:31:32.862,1.151792262200158,1.398706495172422,1.062448149611598,1.123699185399419,0.8270278601292583,1.010864109769974,0.5195022558013203,0.7593196274928798,0.587716921222263,1.100013175186607,0.5421487858432554,0.4293784625223891,0.3773139028287153,0.08994363685402536,0.152300158760755,0.6049593207032756,0.2672670982053934,-0.04679157974488124,-0.2924840251195261,0.1522734988442368,787.7289377289378,778.0586080586081,782.0879120879121,788.1318681318681,670.8791208791209,-0.114380,-0.050232,0.994507,6.983337,-0.441132,-2.325287,1,1,1,1,1,45.000000
2021-04-25 22:31:32.893,,,,,,,,,,,,,,,,,,,,,,,,,,,,,,,,,,,,,,/muse/elements/blink
2021-04-25 22:31:33.862,1.151792262200158,1.034261136146087,1.134326730661264,1.123699185399419,0.8270278601292583,0.604198911247289,0.6706467734697752,0.7593196274928798,0.587716921222263,0.7758246380654459,0.6355638178729461,0.4293784625223891,0.3773139028287153,0.2696859581418791,0.2700139952250414,0.6049593207032756,0.2672670982053934,-0.03290737122641622,-0.1427645375548123,0.1522734988442368,745.4212454212454,827.2161172161173,759.5238095238095,745.0183150183151,683.7728937728938,-0.142456,0.005493,0.981750,9.114227,0.179443,-2.781372,1,1,1,1,1,45.000000
2021-04-25 22:31:34.036,,,,,,,,,,,,,,,,,,,,,,,,,,,,,,,,,,,,,,/muse/elements/blink
2021-04-25 22:31:34.875,1.151792262200158,1.580887038015958,1.245147778207063,1.123699185399419,0.8270278601292583,1.160256021264592,0.9991502411756165,0.7593196274928798,0.587716921222263,1.072467450970403,0.9736839024563611,0.4293784625223891,0.3773139028287153,0.2038604791459906,0.2777809518065402,0.6049593207032756,0.2672670982053934,-0.004913894791453451,-0.121171553309098,0.1522734988442368,807.8754578754579,781.2820512820513,784.5054945054945,824.7985347985348,890.8791208791209,-0.132263,0.139099,0.978149,6.661835,-7.813263,5.727234,1,1,1,1,1,45.000000
2021-04-25 22:31:35.867,0.7950153865363465,1.160532176870124,0.6745395268506325,0.7540868576112165,0.4918398517253266,0.689363199282253,0.6719084992360222,0.05863247698503855,0.5991435384856189,0.9462367188798216,0.8042135208101832,0.6640542760562544,0.4375218343265387,0.1245224834282022,0.1737173504198505,0.7264259568687852,0.4610155965931432,0.02583782190982899,-0.07059914020521854,0.6035645580358551,786.1172161172161,790.952380952381,779.6703296703297,788.9377289377289,654.3589743589744,-0.175659,0.023865,0.989075,1.046753,-1.383209,-1.607513,1,1,1,1,1,45.000000
2021-04-25 22:31:36.265,,,,,,,,,,,,,,,,,,,,,,,,,,,,,,,,,,,,,,/muse/elements/blink
2021-04-25 22:31:36.460,,,,,,,,,,,,,,,,,,,,,,,,,,,,,,,,,,,,,,/muse/elements/blink
2021-04-25 22:31:36.874,0.8421817613387512,0.8824381033648505,0.09235962436246829,0.7715317203768783,0.5211600513617477,1.026435847025715,0.4019826892880404,0.5445061335190838,0.8587161555627203,0.7978527195053773,0.3870567028825893,0.8742407732252251,0.3810980226991995,0.2724415960757336,0.2554169898347647,0.6434240337122759,0.3929316443564814,0.2041176312192534,-0.02201231811725282,0.4573729099509515,886.8498168498169,768.3882783882784,763.5531135531136,896.1172161172161,740.1831501831502,-0.178467,0.006897,0.988586,4.725342,-4.553375,4.874878,1,1,1,1,1,45.000000
2021-04-25 22:31:36.987,,,,,,,,,,,,,,,,,,,,,,,,,,,,,,,,,,,,,,/muse/elements/blink
2021-04-25 22:31:37.863,0.936999339336452,1.414287772063703,1.142647763998674,0.807636143765278,0.5679685457874172,1.289248169827102,0.8851948083539249,0.8491055705164613,0.8537454191275577,0.8641112790145342,0.6602577578713523,0.7447522975427761,0.3552017478585699,0.2952368813670792,0.2884148399470984,0.4533302179295872,0.3284550479775739,0.197306013986032,-0.1191110443155447,0.14878813728616,823.992673992674,766.7765567765568,768.3882783882784,798.2051282051282,873.956043956044,-0.172729,0.049316,0.990295,2.945862,-2.235565,-3.327179,1,1,1,1,1,45.000000
2021-04-25 22:31:38.870,1.316734071954726,1.399124138206004,1.489352650448213,1.359784804922507,0.4618334637778601,0.6934668123213454,0.5948779025015294,0.3939010399719753,0.7029792797484806,0.4676778451691383,0.4987202476327391,0.734844188259315,0.4732600125774712,0.2058192761087277,0.2239866446322125,0.6747468842063381,0.2984499881660659,0.2027728293350748,-0.06492651035145329,0.3631969200419596,789.7435897435897,770.4029304029305,781.6849816849817,788.1318681318681,691.4285714285714,-0.136536,0.014526,0.987732,9.996490,-1.801910,-15.559235,1,1,1,1,1,55.000000
2021-04-25 22:31:39.506,,,,,,,,,,,,,,,,,,,,,,,,,,,,,,,,,,,,,,/muse/elements/blink
2021-04-25 22:31:39.866,1.247702818075308,1.510306286126201,1.572936792298779,1.208832721082075,0.3920834572131531,0.982046228603599,0.8960626564051505,0.6972701156450406,0.7285184119754354,0.8794929323544589,0.78226241354696,0.7685358778095073,0.5471308047009046,0.2795515284296091,0.3532264584811618,0.772333483163276,0.4903212836765766,0.2514483922588504,0.04062085815658958,0.5325733178199461,852.1978021978023,798.6080586080586,807.0695970695971,859.047619047619,693.4432234432235,-0.204895,0.047791,0.976135,11.761017,-11.095581,-38.744812,1,1,1,1,1,55.000000
2021-04-25 22:31:39.937,,,,,,,,,,,,,,,,,,,,,,,,,,,,,,,,,,,,,,/muse/elements/blink
2021-04-25 22:31:40.434,,,,,,,,,,,,,,,,,,,,,,,,,,,,,,,,,,,,,,/muse/elements/blink
2021-04-25 22:31:40.823,,,,,,,,,,,,,,,,,,,,,,,,,,,,,,,,,,,,,,/muse/elements/blink
2021-04-25 22:31:40.862,1.180214513326479,1.446390426314491,1.339525613939696,0.9366855446060594,0.612996119803031,1.125318808215457,0.774940219771043,0.9209553161478966,0.623074131684343,0.902569936903347,0.4619635297221189,0.7638593328664977,0.4822611763928781,0.2733833530421981,0.3820635928220525,0.9042358195457978,0.5406692428549212,0.06005792490205382,-0.01802525121471282,0.6186438917236801,883.6263736263736,756.3003663003664,740.5860805860806,878.7912087912089,830.0366300366301,-0.256958,0.018372,0.966492,5.697327,3.872986,12.740479,1,1,1,1,1,55.000000
2021-04-25 22:31:41.862,1.180214513326479,1.398725539602623,1.38554656140354,0.9366855446060594,0.612996119803031,0.7440999119879662,0.4391642118858419,0.9209553161478966,0.623074131684343,0.8024333865255561,0.2917406571705968,0.7638593328664977,0.4822611763928781,0.2926622854519007,0.2233458521765865,0.9042358195457978,0.5406692428549212,-0.07193954775219806,-0.02130479523422159,0.6186438917236801,800.2197802197802,792.967032967033,802.2344322344322,817.948717948718,653.5531135531136,-0.195190,0.028259,0.984802,2.609406,-2.325287,-1.622467,1,1,1,1,1,55.000000
2021-04-25 22:31:42.861,0.8544435300829639,1.135686367450702,0.9457522372243591,0.7200516909593565,0.7221211133719994,0.1823872285212255,0.3819421516651952,0.6649560623555117,0.7056938706583077,0.6550692959404338,0.4206664601257327,0.6945158191629337,0.4456629232674323,0.357567756273742,0.2508300399853693,0.5302732541436123,0.2041164696333556,-0.1519825585467248,0.1008201522335904,0.3467748739948751,808.6813186813187,787.3260073260074,796.1904761904763,807.0695970695971,695.8608058608058,-0.183899,0.031494,0.984253,4.934692,-2.519684,-2.923431,1,1,1,1,1,55.000000
2021-04-25 22:31:43.275,,,,,,,,,,,,,,,,,,,,,,,,,,,,,,,,,,,,,,/muse/elements/blink
2021-04-25 22:31:43.862,0.8185653739407623,1.139359119534702,1.662773516625157,0.7291643291486425,0.5775570442105286,0.8082171251036947,0.8414481524277274,0.5438705987523726,0.6429349811485876,0.699905982668291,0.8483508104373072,0.4685346891769157,0.3150046916570235,0.410884599358977,0.2474252610467151,0.5376033563818956,0.2158608461226986,0.03501101670304096,-0.1807293611832989,0.368122059482423,844.9450549450549,784.1025641025641,812.3076923076924,850.5860805860806,799.8168498168499,-0.186584,0.026184,0.984863,3.319702,-4.104767,1.667328,1,1,1,1,1,55.000000
2021-04-25 22:31:44.867,0.6492937196026534,1.072468290356589,1.801999248917361,0.9003062541875946,0.5597009111252232,0.7249752489574973,0.6088358499843696,0.6243895223140893,0.6944903374600637,0.6316459941081617,0.6227332771920269,0.6522603756651618,0.3910488558066337,0.1750909914238303,0.2117045762660497,0.5749945671310212,0.2404785942919084,0.1309718971190795,-0.299043820985914,0.2187138573125957,796.1904761904763,801.4285714285714,803.040293040293,806.6666666666667,671.6849816849817,-0.182495,0.024902,0.985840,4.979553,-1.600037,-2.594452,1,1,1,1,1,55.000000
2021-04-25 22:31:45.862,0.7671366760195861,0.9608386035794226,1.30418865739251,0.7686979346146342,0.731564316962991,0.6605766733556979,0.5787477236864385,0.6851804013413694,0.9071690527231182,0.7928427447676465,0.6392772860836125,1.001799925562149,0.4013679402748274,0.1750825816376655,0.2942740519109647,0.5629141658195158,0.1277539227837612,0.05823768353313057,-0.1255393248768001,0.174469340200804,801.4285714285714,795.7875457875458,799.8168498168499,806.6666666666667,709.9633699633699,-0.189880,0.034973,0.985413,5.084229,-3.663635,-0.957031,1,1,1,1,1,55.000000
2021-04-25 22:31:46.871,0.3946614619956573,0.5833378591238175,0.6434542318513301,0.2598206720864629,0.3817304715286062,0.08911920367871957,0.1508452382185061,0.3384947748560381,0.8460244781863407,0.2714805367169351,0.5155532683678339,0.8194775690806778,0.5360193417510032,0.2416576985610346,0.272984834875404,0.4822070799781562,0.06629740901438393,0.04394940475850781,-0.1134775946291764,0.2769381863157568,840.9157509157509,838.4981684981685,788.5347985347986,835.6776556776557,882.014652014652,-0.182861,0.038147,0.986023,4.583282,-3.125305,-1.375732,1,1,1,1,1,55.000000
2021-04-25 22:31:47.245,,,,,,,,,,,,,,,,,,,,,,,,,,,,,,,,,,,,,,/muse/elements/blink
2021-04-25 22:31:47.862,0.5497876095673004,1.410323480440232,0.3680170462074099,0.464096615587471,0.4916249910523766,0.9172671487824821,0.2699484365726665,0.2949938284846906,0.522100304629322,0.8046519153563034,0.4563404700868731,0.503349004142617,0.5622484893349943,0.3859982935207861,0.2001889409510515,0.5088463233755168,0.1289964205721054,-0.04901501554258767,-0.1950792988957607,0.2588287910391193,784.1025641025641,785.3113553113553,793.3699633699634,805.0549450549451,637.8388278388279,-0.179138,0.039001,0.983826,4.852448,-2.788849,-0.530853,1,1,1,1,1,55.000000
2021-04-25 22:31:48.862,0.5632894630238656,1.388249673429091,0.6271072336322413,0.4527492276555972,0.2476567941809749,0.8518073191314988,0.4257084928292908,0.02580006228493135,0.3852444259563437,0.8256837682954271,0.4583810412148823,0.3017622962471511,0.5837560390100472,0.3378457216026515,0.176793794627164,0.5234512384175701,0.2375207388635257,-0.01793071755215999,-0.02373088195305432,0.1792478169892971,831.6483516483516,806.2637362637363,810.6959706959707,833.2600732600733,690.2197802197802,-0.177002,0.039124,0.989258,4.710388,-3.686066,-1.136475,1,1,1,1,1,50.000000
2021-04-25 22:31:49.603,,,,,,,,,,,,,,,,,,,,,,,,,,,,,,,,,,,,,,/muse/elements/blink
2021-04-25 22:31:49.862,0.5110345259366978,1.087199161651244,1.199487987917579,0.6115433588693743,0.4516755518691927,0.8487276345651841,0.8519541714911835,0.6377980980019807,0.7910616973273424,0.7997784585904087,1.021901629470359,0.7062063665880549,0.4865824138695755,0.3003893588728601,0.2560058779460075,0.3927996582304636,0.0627835782615522,0.1484572891921135,-0.1177230765633474,0.0999018874787569,836.0805860805862,790.5494505494506,799.4139194139194,840.5128205128206,807.0695970695971,-0.179688,0.040955,0.979736,4.613190,-2.751465,-1.099091,1,1,1,1,1,50.000000
2021-04-25 22:31:50.862,0.6995063718641398,1.537733774896323,1.215894645024604,0.7942942472141501,0.611825372889984,1.185625162068698,0.844129202756327,0.7349526418885191,0.7202221131118233,0.8145298199524974,1.021901629470359,0.7501211925708215,0.5632754126269326,0.2780173715122092,0.1997947848386788,0.6710191769151139,-0.1233035392763792,0.1053417487966902,-0.09032069714909445,0.2284397450818662,794.5787545787546,801.4285714285714,797.3992673992674,806.6666666666667,669.6703296703297,-0.177063,0.041199,0.987000,5.099182,-2.572021,-0.710297,1,1,1,1,1,50.000000
2021-04-25 22:31:51.861,0.3093709019967482,0.2069712067042805,0.2027145571606944,0.235763648292712,0.2461153786402084,-0.09048125841166439,0.2718204143496239,0.5098183560859454,0.3377650618836393,0.1045072377646344,0.5505400567858452,0.7161804894708573,0.5059374037522584,0.1429944532040563,0.04207010468884564,0.6080621139820518,0.04419342517797629,0.06210505181247736,-0.1397889486369256,0.1799104622237277,814.3223443223443,799.8168498168499,805.4578754578755,803.4432234432235,726.4835164835165,-0.173767,0.049805,0.974976,4.463654,-2.385101,-1.151428,1,1,1,1,1,50.000000
2021-04-25 22:31:52.530,,,,,,,,,,,,,,,,,,,,,,,,,,,,,,,,,,,,,,/muse/elements/blink
2021-04-25 22:31:52.866,0.2770788477072035,0.5676141141268801,1.018337165157084,0.456519083345292,0.2493488688100843,0.4683960877352925,0.6380798007822502,0.6858780841316722,0.5087907316311038,0.4658900662939028,0.8522552447127408,0.7530147234869187,0.3306520145056576,0.2825832460773079,0.2149337766383473,0.5878988530618379,0.1067900833485321,0.03259319138359709,0.02874725338613776,0.0292959465749308,798.6080586080586,792.1611721611722,787.7289377289378,807.4725274725275,933.992673992674,-0.190308,0.046509,0.982727,4.590759,-1.241150,-0.598145,1,1,1,1,1,50.000000
2021-04-25 22:31:53.862,1.013491264474745,0.858882669498872,1.386868673897116,0.8136256492682968,0.6028995968655121,0.7353218485201659,1.056512765928266,0.8420674904402927,0.3392798740012415,0.5067830060884644,0.8899739123969145,0.9756955770724385,0.3578629225453268,0.1784018256904502,0.2045233503599629,0.3816701420900716,0.04973812477923509,0.151526226469168,0.09275338645449142,0.3224119042321933,793.7728937728938,791.7582417582418,796.1904761904763,804.6520146520147,688.2051282051282,-0.198730,0.047424,0.983582,4.329071,-2.706604,-1.039276,1,1,1,1,1,50.000000
2021-04-25 22:31:54.862,0.901646595937713,0.8002491128870286,0.970927702764978,0.6317257288570974,0.5370742834163031,0.4340297922942565,0.7115903990813541,0.663953523636042,0.6900475531660278,0.4991901548985397,0.801112310328583,1.003299064647193,0.427053666036498,0.1953142795143434,0.2414192138503166,0.5607684447021416,0.04283895531292475,0.1234880215637409,-0.141585023653617,0.3109052161720021,792.967032967033,790.1465201465202,792.5641025641025,790.1465201465202,691.4285714285714,-0.194946,0.054504,0.980530,5.248718,-2.968292,-0.231781,1,1,1,1,1,50.000000
2021-04-25 22:31:55.682,,,,,,,,,,,,,,,,,,,,,,,,,,,,,,,,,,,,,,/muse/elements/blink
2021-04-25 22:31:55.866,0.9846912672323511,1.269247936775302,1.359009537231324,0.5232746288835897,0.9515078075211443,0.9383253573940906,0.889419004003726,0.8360898162974744,0.6418984134868636,0.8963172705015744,0.7737206874860405,0.7498160696919993,0.6235122678505088,0.3604364952268068,0.2766471337199491,0.6277789437572597,0.1763842030399441,0.1479091269888259,0.01482027300249486,0.3573133771287502,817.1428571428571,795.7875457875458,799.0109890109891,826.007326007326,950.9157509157509,-0.199585,0.051270,0.978821,4.852448,-2.706604,-0.598145,1,1,1,1,1,50.000000
2021-04-25 22:31:56.866,1.00487521945936,1.451954160151141,1.39495507995483,0.5530766388948487,0.5234771059739953,1.181284221306992,0.9297531482617719,0.676227340237577,0.5354835186736914,0.9381926255609676,0.7498387715152721,0.7367646319701202,0.6151695014992495,0.2877672438996127,0.3216138941162411,0.4932709208402902,0.2744903404550808,0.1777138973150442,0.1478909264642246,0.2077417492750165,782.0879120879121,800.6227106227107,786.5201465201466,781.2820512820513,667.6556776556777,-0.210083,0.057373,0.975952,4.673004,-2.063599,-0.837402,1,1,1,1,1,50.000000
2021-04-25 22:31:57.861,0.5601455383960275,0.6194970923578116,0.7452462549651514,0.530294237475665,0.1760389291825649,0.39000860507934,0.2791955857217034,0.1116216613315736,0.617102492721048,0.716267502125408,0.5480414528782298,0.5674794331317113,0.5255299008348536,0.2883792222061958,0.2360200905514376,0.4341370984219473,0.185899991304894,0.04041123804632699,-0.04853440689918791,0.1046468736261243,800.2197802197802,798.2051282051282,794.5787545787546,792.1611721611722,568.9377289377289,-0.230591,0.077271,0.976685,5.532837,-1.211243,-0.029907,1,1,1,1,1,50.000000
2021-04-25 22:31:58.861,0.9077472051215555,1.052498323356253,1.064811949717897,0.8190868878546794,0.5022073414646917,0.5038815913517964,0.5424299581284939,0.5775623852974093,0.7685857165894733,0.7382243661792053,0.4554255607514944,0.8984117198877715,0.5884133084943816,0.3310088339480566,0.1046099307427207,0.614021741131764,0.08769325497389939,0.1669154564104884,-0.001107003430682025,0.2180704705696821,838.0952380952381,800.6227106227107,808.6813186813187,838.0952380952381,757.1062271062272,-0.214600,0.082825,0.978577,5.166473,-3.424377,-1.779480,1,1,1,1,1,50.000000
2021-04-25 22:31:59.101,,,,,,,,,,,,,,,,,,,,,,,,,,,,,,,,,,,,,,/muse/elements/blink
2021-04-25 22:31:59.869,0.5087715724392243,0.5223480474202771,1.082984341040933,0.6957805416243487,0.5842177498347745,0.2772063734664747,1.086895200808826,0.7504099551782337,0.7270802813867551,0.3683054396282675,1.146391025983216,0.7858074418328848,0.4773720673421978,0.3822585064421123,0.3301055444709209,0.6076532174991568,0.122328568381161,0.2345488447096555,0.09270925087536169,0.1821752412949685,652.3443223443223,819.96336996337,830.8424908424909,676.9230769230769,716.8131868131868,-0.179993,0.054443,0.976379,2.108459,-2.093506,0.261688,1,1,1,1,1,50.000000
2021-04-25 22:32:00.135,,,,,,,,,,,,,,,,,,,,,,,,,,,,,,,,,,,,,,/muse/elements/blink
2021-04-25 22:32:00.861,0.4936008714926522,1.268567934563749,1.578956510383432,0.548807896465566,0.5547061831959547,0.589048548044933,1.318789741724613,0.6762670268723048,0.7180019499180647,0.4499544304608977,1.1483315442685,0.7213948346892975,0.4461179619486914,0.2289173526318122,0.280096102996817,0.5899897891644421,0.2161221787318516,-0.01060643530287383,-0.1143928061895099,0.1760388364593774,787.7289377289378,799.0109890109891,793.7728937728938,802.2344322344322,629.7802197802198,-0.208435,0.065369,0.977722,4.015045,-3.850555,1.211243,1,1,1,1,1,50.000000
2021-04-25 22:32:01.868,0.3576302839319543,0.9116274145203418,1.380140604517746,0.6117508496670189,0.2464667995415485,0.4233764282452548,0.8808753019995723,0.3113415462602128,0.4324787272636668,0.4068004348812088,0.6652897480751433,0.5841132940297459,0.4539252640343459,0.1867202960855754,0.2818101461259052,0.5207084780246938,0.335312709652513,0.1340699021665382,-0.1987161564657224,0.2000574365837015,810.2930402930403,790.5494505494506,793.7728937728938,807.8754578754579,995.2380952380953,-0.195801,0.050537,0.980713,5.211334,-2.145844,-1.114044,1,1,1,1,1,50.000000
2021-04-25 22:32:02.864,0.6460955288622907,0.6709867297118234,0.7391092184163119,0.8715105275133906,0.3672048075580148,0.3173915182040777,0.3812359711168565,0.5768203597414802,0.703335397104334,0.3537887201176924,0.5242550556968454,0.877143946708722,0.491361374632331,0.234464462148976,0.2704297271021631,0.5390609112340444,0.2957697767738859,0.157062458520723,-0.05693961509907029,0.2591927857110295,778.0586080586081,800.6227106227107,811.5018315018315,801.4285714285714,767.5824175824176,-0.194092,0.050781,0.979431,4.456177,-3.222504,-0.986938,1,1,1,1,1,50.000000
2021-04-25 22:32:03.085,,,,,,,,,,,,,,,,,,,,,,,,,,,,,,,,,,,,,,/muse/elements/blink
2021-04-25 22:32:03.860,0.7449475753652786,1.382783285456451,1.297839563022317,0.7136904917324531,0.4628813138911417,1.118829563317037,0.9786667268459951,0.8480766825946289,0.705742481230923,0.8998246759977888,0.8385652823768684,0.8923206230807016,0.5098108752969644,0.1567909003769102,0.3096268063410167,0.3942130688356725,0.2763620142891655,0.1340607646059878,-0.05257071625043929,0.2901330020502391,783.2967032967033,797.3992673992674,801.8315018315019,788.9377289377289,646.7032967032967,-0.201721,0.047058,0.985352,5.136566,-3.431854,-0.179443,1,1,1,1,1,50.000000
2021-04-25 22:32:04.860,0.3966171083056744,1.143902144211939,0.7556987887381562,0.5777344066789262,0.2642220900810095,0.9870032786469753,0.4252778123323624,0.4980051601261801,0.4737480853257476,0.8943049058326317,0.3722514969797678,0.2957430460776573,0.354820685361078,0.1916209222282874,0.4156994308434317,0.6529983170286555,0.2267674036582741,0.1063871793404272,0.01338179867789591,0.2420088652054384,820.7692307692308,798.2051282051282,792.967032967033,816.3369963369963,697.4725274725275,-0.203003,0.045959,0.983398,4.254303,-3.140259,-1.084137,1,1,1,1,1,50.000000
2021-04-25 22:32:05.333,,,,,,,,,,,,,,,,,,,,,,,,,,,,,,,,,,,,,,/muse/elements/blink
2021-04-25 22:32:05.864,0.6236686823693994,1.211478391505866,1.393085662035425,0.8086616249349654,0.7994747469032689,1.127056765143487,0.8827612460763412,0.9069995769216779,0.60068504463432,0.8695102030948648,0.8102080749430608,0.7453441116220182,0.3511910431311461,0.3949570593071219,0.3201156054379226,0.5276264761763177,0.1548309336169003,0.1706992688274046,0.02943463602798798,0.2322137780489249,803.040293040293,805.0549450549451,814.3223443223443,814.7252747252747,826.007326007326,-0.196167,0.042908,0.986694,5.241241,-3.753357,-0.650482,1,1,1,1,1,50.000000
2021-04-25 22:32:06.860,0.725070980261636,1.195971049441137,1.291497784375773,1.029292963814091,0.6540767080771577,1.115855270775775,0.7348023645529467,0.8336604181792183,0.3667091241758518,0.7829565814516287,0.8537731733065992,0.577801158041201,0.5253190493516046,0.3003626921704778,0.3914627587222446,0.7898061361280507,0.228425283632925,0.1312488138079496,-0.1525393220734159,0.2070871532537051,780.0732600732601,787.7289377289378,804.6520146520147,794.5787545787546,709.5604395604396,-0.202515,0.032898,0.979919,4.284210,-2.534637,-1.457977,1,1,1,1,1,50.000000
2021-04-25 22:32:07.862,0.765874208717226,0.8781916066055532,1.246045600192088,0.8459876642964823,0.5413322723667483,0.5962581092750894,0.7205071953565106,0.7257499054660925,0.6941484919324967,0.5237133486668052,0.7363023276694004,0.7260399817010934,0.3369903044030695,0.3008723321758566,0.3707141629860887,0.6690808089308055,0.1073831600611323,0.1844952231539144,-0.03372858982121292,0.2196777568572546,837.2893772893773,798.2051282051282,807.8754578754579,847.3626373626374,871.5384615384615,-0.201599,0.033569,0.981995,4.770203,-2.998199,-1.121521,1,1,1,1,1,50.000000
2021-04-25 22:32:08.767,,,,,,,,,,,,,,,,,,,,,,,,,,,,,,,,,,,,,,/muse/elements/blink
2021-04-25 22:32:08.871,0.6001160833334171,0.9578397936060504,1.242384100243158,0.8627156319881168,0.3442632836393409,0.5492357996141272,0.6840626676734745,0.5801284614667079,0.6997187608203473,0.8702509155133349,0.9139275482156193,0.8539028636634556,0.406409051313385,0.3785505468081019,0.428405689866375,0.6736415390181818,0.024411393036261,0.3119591360289104,0.08187481488044476,0.3361064527726273,884.4322344322345,764.7619047619048,796.996336996337,898.5347985347986,994.4322344322345,-0.199829,0.034424,0.980347,5.114136,-3.962708,-0.104675,1,1,1,1,1,50.000000
2021-04-25 22:32:08.983,,,,,,,,,,,,,,,,,,,,,,,,,,,,,,,,,,,,,,/muse/elements/blink
2021-04-25 22:32:09.861,0.7551164317563922,1.501866117425276,1.302786877814352,1.109214610887022,0.2887279751732229,1.264173962297106,0.7324944148535445,0.7350460599111278,0.6196005861639788,1.005180180481641,0.9223329579267598,0.8207622422133377,0.4458213950903637,0.4227697327035697,0.442173027598188,0.8215224658603317,-0.00672016594838794,0.1894950418310552,0.1333526410245465,0.2979964273004384,791.3553113553114,790.952380952381,794.981684981685,797.3992673992674,779.6703296703297,-0.200867,0.032959,0.981995,5.248718,-3.162689,-1.099091,1,1,1,1,1,50.000000
2021-04-25 22:32:10.869,1.244350244061234,1.066511304624287,0.5064382236972763,0.7414302832978328,0.4175617627617338,0.6840240875925814,0.2440921223790592,0.2892265279440373,0.8065255233162647,0.6498391386247779,0.2917058256433102,0.8462271801485403,0.4154133427852411,0.2371962987446604,0.2531684773029573,0.6251441868570213,0.1345931522692519,0.1512658100178355,-0.1322314192392463,0.2668404105940901,827.2161172161173,800.6227106227107,776.8498168498169,817.5457875457876,794.1758241758242,-0.191956,0.043579,0.984192,4.097290,-2.392578,-0.508423,1,1,1,1,1,50.000000
2021-04-25 22:32:11.870,1.118632860400089,0.8979761923703069,1.200934261729526,0.6801709692401624,0.7922425855812226,0.6143721647994976,0.6473218062090597,0.5397606800880741,1.050890443901981,0.5415733429562835,0.8138849263204621,0.9452981345886289,0.4735636771764717,0.1764618154773475,0.2442887105101601,0.6235892884109181,0.2067385304529735,0.1369372136552579,-0.1050583270825839,0.4176845298181584,820.3663003663004,795.3846153846154,799.4139194139194,823.5897435897436,968.2417582417582,-0.241150,0.034729,0.979736,5.248718,-5.689850,-1.136475,1,1,1,1,1,50.000000
2021-04-25 22:32:12.329,,,,,,,,,,,,,,,,,,,,,,,,,,,,,,,,,,,,,,/muse/elements/blink
2021-04-25 22:32:12.861,1.17367881154788,0.9117861933287843,1.278608850131965,0.9066890282439021,0.9039699173373409,0.7779344855088759,0.7703125148831814,0.6536961558982659,1.017895307881545,0.694382991108796,0.8468685507348979,0.7154180889295285,0.3680063874440993,0.3843996183928486,0.3326409539657066,0.438251448115487,0.1080079852183858,0.1648651375435679,-0.05545124646539383,0.2821577968877813,820.7692307692308,809.8901098901099,810.2930402930403,826.4102564102565,919.0842490842491,-0.230774,0.026611,0.979614,4.598236,-3.887939,-1.779480,1,1,1,1,1,50.000000
2021-04-25 22:32:13.860,0.8652307226188476,1.032004572289894,1.415265520499932,0.5851955316440622,0.4302608474425632,0.8997497637480566,0.8995866279107937,0.2490439122235073,0.7122043350150544,0.7670005299405451,0.8850653927919937,0.6829714469848945,0.5548645880578911,0.4822457846248633,0.2932213836218624,0.7015991394271558,0.01925252657748902,0.1500669022338989,-0.02869365449334344,0.3129993838298539,782.4908424908425,798.2051282051282,801.8315018315019,790.952380952381,695.8608058608058,-0.218384,0.034912,0.982239,5.166473,-2.302856,-1.540222,1,1,1,1,1,50.000000
2021-04-25 22:32:14.575,,,,,,,,,,,,,,,,,,,,,,,,,,,,,,,,,,,,,,/muse/elements/blink
2021-04-25 22:32:14.874,0.7389065783757391,1.07947615826151,1.324806757939037,0.4475564099952947,0.6820400783713103,0.900803669450797,0.773316416835389,0.3693463746035832,0.6624575837329255,0.8687484103180717,0.6783792047424806,0.3741596722751075,0.6410467393907178,0.3218346800548176,0.2896341895487357,0.7060523645256109,0.02169146543766078,0.03448807297192849,-0.07484902203913421,0.3663551583635182,838.0952380952381,781.6849816849817,805.4578754578755,851.3919413919414,900.1465201465202,-0.224915,0.029114,0.975403,4.538422,-3.394470,-1.218719,1,1,1,1,1,50.000000
2021-04-25 22:32:15.860,0.7600583989508655,1.262165195130452,1.329944873386359,0.4679442937013841,0.9289467959713754,0.9904233015021696,0.8268478092202776,0.6487696312404898,0.3679586338294967,0.8675539039670916,0.7137889789051339,0.3041729746912161,0.6595595486529602,0.1423941923057052,0.2929510518509187,0.6643915670701848,0.02535059980647409,0.1913982696903476,-0.07152608269356685,0.2653720380445125,828.4249084249085,800.2197802197802,795.3846153846154,833.2600732600733,948.4981684981685,-0.226746,0.037231,0.977478,5.487976,-3.872986,-0.643005,1,1,1,1,1,50.000000
2021-04-25 22:32:16.573,,,,,,,,,,,,,,,,,,,,,,,,,,,,,,,,,,,,,,/muse/elements/blink
2021-04-25 22:32:16.868,0.7721830821465909,0.7502053824829624,0.8141346973315663,0.4555052161471654,0.4464271695515734,0.6076797289943369,0.3889201754904116,0.1631603977092284,0.7243635931723656,0.751608348510557,0.6350166393066881,0.5665723985915442,0.5162044494675606,0.1531833032716223,0.1865965080453714,0.6598845716905231,-0.1539266880877415,0.2337286687738562,-0.1929642051681865,0.04683160750139104,816.3369963369963,799.0109890109891,802.2344322344322,820.3663003663004,757.5091575091575,-0.214722,0.041809,0.978516,4.957123,-4.149628,-0.411224,1,1,1,1,1,50.000000
2021-04-25 22:32:17.860,0.6282773221460448,1.017574273797687,0.9519698596907229,0.5375928809259,0.4490179060409631,0.8918078578557836,0.5874971332846919,0.5071532813724012,0.8248949813243672,0.7968808237351078,0.5531369781487915,0.6972427339030297,0.2354727411793705,0.1643903730630204,0.2868395899271721,0.3379680810772727,0.01513955480574389,0.2702443710449125,-0.1172524548770427,-0.06383751997436043,812.3076923076924,790.952380952381,794.1758241758242,811.5018315018315,786.9230769230769,-0.220032,0.041016,0.973389,4.291687,-3.013153,-0.942078,1,1,1,1,1,50.000000
2021-04-25 22:32:18.605,,,,,,,,,,,,,,,,,,,,,,,,,,,,,,,,,,,,,,/muse/elements/blink
2021-04-25 22:32:18.860,1.013720301114457,0.6682611914938068,0.9085966280252209,1.123787704194898,1.077418707592586,0.4823468628431225,0.4902673145810916,0.845265222790078,1.028238404567125,0.7062084163491096,0.7081712766407614,0.7313185832405598,0.5321966440715512,0.2397991987410939,0.3301113696585499,0.5349659530500012,0.09036248726292342,0.1282406036161331,0.09428780095902251,0.260010903909163,842.9304029304029,794.981684981685,805.4578754578755,843.3333333333334,951.3186813186813,-0.218323,0.041565,0.978210,4.336548,-3.147736,-1.188812,1,1,1,1,1,50.000000
2021-04-25 22:32:19.859,1.314220560491695,0.8705679799327706,1.315770392396313,1.432940492861302,1.04229294474087,0.4861056077796709,0.8126974520477908,0.9434212181234717,1.026536044143769,0.7469137290372511,0.7188826995483594,0.745061128091275,0.505435818778747,0.1836721961291275,0.2966924565371169,0.5042540610755203,0.04551715317740235,0.1203189564163791,0.14450043012163,0.273869958129994,735.7509157509157,840.9157509157509,761.941391941392,717.6190476190476,634.6153846153846,-0.220581,0.042114,0.978333,4.530945,-3.588867,-1.091614,1,1,1,1,1,50.000000
2021-04-25 22:32:20.054,,,,,,,,,,,,,,,,,,,,,,,,,,,,,,,,,,,,,,/muse/elements/blink
2021-04-25 22:32:20.872,0.8253962421482784,1.162041501283731,1.203183109862175,0.7824971717377378,0.6559905349626561,0.7302579809195416,0.9856545972566778,0.392179381367792,0.3839537129999343,0.6180058829872888,0.8891443701824699,0.6845883374491207,0.5809431854065863,0.2306603311047309,0.3923400746031767,0.4526988980871724,-0.1021312660981955,0.2020340750698068,0.1511734309915003,-0.07434923763933343,803.040293040293,810.2930402930403,774.0293040293041,788.5347985347986,715.2014652014652,-0.225586,0.047546,0.979614,4.822540,-2.796326,-0.672913,1,1,1,1,1,50.000000
2021-04-25 22:32:21.859,0.9211615425235204,1.242312538823617,1.388725448951286,0.881659290539398,0.2998002702366595,0.8064161583844943,1.068791408052794,0.8148871226400574,0.8360164376529478,0.7682355549201949,1.025082509914564,0.879479377870346,0.3508319211802712,0.3340304491119012,0.4727855989708829,0.6413132014403391,-0.000690902101529444,0.2310216799249229,0.1652180607025787,0.4627892725555208,829.2307692307693,794.1758241758242,806.2637362637363,839.7069597069598,914.6520146520147,-0.223877,0.043640,0.979431,5.248718,-2.048645,-0.007477,1,1,1,1,1,50.000000
2021-04-25 22:32:22.860,0.6448440214941837,0.8778665272427894,1.07354115121709,0.7590006783661598,0.2567500674119971,0.5433633937430686,0.7330248596462682,0.5720545626524811,0.7940689124336383,0.6941989430844765,0.8389157363382785,0.9061087196530572,0.4216228161066089,0.4258733632275998,0.355303162243379,0.6607162405373702,-0.0268729395273917,0.3521944469210175,0.1432423224484622,0.3273427617238932,815.934065934066,785.7142857142858,803.4432234432235,823.5897435897436,851.3919413919414,-0.250000,0.047852,0.964661,4.314117,-5.233765,-1.824341,1,1,1,1,1,50.000000
2021-04-25 22:32:23.862,0.7540351034607456,0.7981939810304698,1.010139918066754,0.7547377976081246,0.3088936334584453,0.5113158573844586,0.6885899231258692,0.5401082311728608,0.6701444836833891,0.582511069031411,0.8686739370469546,0.9489910155603944,0.3836639435404352,0.4191973245256149,0.4138019447111879,0.5374136916889904,0.1435645110458021,0.4200002569520927,0.04668673092537365,0.30501850722556,677.7289377289377,840.9157509157509,820.3663003663004,684.1758241758242,720.8424908424909,-0.246277,0.035095,0.970886,4.545898,-3.342133,-0.979462,1,1,1,1,1,50.000000
2021-04-25 22:32:24.069,,,,,,,,,,,,,,,,,,,,,,,,,,,,,,,,,,,,,,/muse/elements/blink
2021-04-25 22:32:24.860,0.5636250441156775,1.274932458503395,1.445021713965595,0.7654322937951236,0.02435772894386895,0.9709251885695193,0.9618650656513487,0.7377876755165256,0.6503689100262834,0.7732143093221591,0.8992449344750811,0.8591503438632542,0.3415018544019454,0.451948984784465,0.313129531176883,0.4503639992420372,0.2112122060008884,0.4009871686427773,-0.009476352110297442,0.1526675572890377,829.2307692307693,791.7582417582418,800.6227106227107,830.0366300366301,850.989010989011,-0.240723,0.036621,0.975037,4.284210,-3.312225,-1.300964,1,1,1,1,1,50.000000
2021-04-25 22:32:25.860,0.6336062126015315,1.023822534435089,0.9231406113248876,0.5512565799185293,0.5337535027683846,0.8090247797184634,0.5709542897040286,0.5601440040478304,0.5545616373900573,0.7666680667037746,0.4973956921249155,0.3290843651662297,0.3702698583216103,0.4079428945881585,0.3247639718533744,0.4906249072387387,0.1889690626205827,0.1463824840477195,-0.07383920366377894,0.2968649690500679,820.7692307692308,833.2600732600733,756.7032967032967,801.025641025641,911.0256410256411,-0.232605,0.034485,0.974609,3.798218,-2.646790,-1.786957,1,1,1,1,1,50.000000
2021-04-25 22:32:26.433,,,,,,,,,,,,,,,,,,,,,,,,,,,,,,,,,,,,,,/muse/elements/blink
2021-04-25 22:32:26.862,0.5366195348938403,1.0967219890759,1.391804405848693,0.5659781357917498,0.360927756015429,1.001818321622711,0.9402714182795638,0.5628990322770278,0.5112578208945571,0.8828397260970947,0.8477787498642728,0.4858558359248519,0.2329286995345621,0.3672723053179353,0.3972703515968827,0.4142962353717604,0.1371842600679251,0.1972555688989219,0.01177209705255792,0.2029841506548236,790.1465201465202,780.8791208791209,806.6666666666667,796.1904761904763,611.2454212454213,-0.226624,0.033508,0.975708,5.226288,-3.596344,-0.456085,1,1,1,1,1,50.000000
2021-04-25 22:32:27.866,0.5252326769968997,1.090326979353187,1.334763433026065,0.3992597208242299,0.4076907602724994,0.9702480474761509,0.9047271454447532,-0.044615671817886,0.5742730357100994,0.872077747988835,0.8444139767714555,0.3115623582815111,0.4513755524465386,0.4297378546498026,0.3262159342119796,0.6623560300259941,0.06853770000307566,0.1975255327725993,-0.02502118938421649,0.3376336125602344,664.4322344322344,829.6336996336996,822.7838827838829,666.0439560439561,807.0695970695971,-0.230164,0.029053,0.973450,2.706604,-4.216919,-2.385101,1,1,1,1,1,50.000000
2021-04-25 22:32:28.068,,,,,,,,,,,,,,,,,,,,,,,,,,,,,,,,,,,,,,/muse/elements/blink
2021-04-25 22:32:28.860,0.861597856959389,1.344200393946179,1.126422470062431,0.5106822419977193,0.5355251288337831,1.037503232771906,0.6508849168453605,0.02019803879723361,0.5999844823009175,0.6242063861874858,0.544098185154415,0.3667027653190808,0.4278323993577711,0.3311820584683787,0.3427064045345106,0.6365280562856122,0.05364840349930859,0.2272400323972316,-0.06715068271459283,0.3430593199152165,830.0366300366301,794.1758241758242,809.0842490842491,841.7216117216118,883.6263736263736,-0.233093,0.012634,0.973328,5.226288,-2.257996,0.089722,1,1,1,1,1,50.000000
2021-04-25 22:32:29.858,0.9887006947955623,1.14215452552264,0.8265818394863916,0.6446260933504361,0.7326136705156011,0.7266810110282415,0.2598942094936349,0.5958278028458743,0.6609211394345896,0.3731310364413202,0.3872720511414015,0.6266729173772373,0.6474588230986502,0.2371075895985137,0.2028733169376637,0.7116003518287001,0.2712927327242964,-0.01042831143606822,-0.04310049387745718,0.4186328698426002,810.6959706959707,797.3992673992674,805.0549450549451,814.7252747252747,943.2600732600733,-0.236633,0.027161,0.973450,4.358978,-3.544006,-1.413116,1,1,1,1,1,50.000000
2021-04-25 22:32:30.698,,,,,,,,,,,,,,,,,,,,,,,,,,,,,,,,,,,,,,/muse/elements/blink
2021-04-25 22:32:30.863,1.105989374525941,0.849916137739712,1.080631430085116,0.6125380146130001,0.9517303103168714,0.795794229794031,0.5229498583422186,0.6560087875232939,1.078039998027978,0.8741721201681178,0.5735886146026211,0.6617629614096111,0.6229630204696098,0.4119880676104744,0.2833467385534239,0.5805367105734517,0.06098063531671868,0.01381210563636613,-0.002607709682148356,0.2624088367952934,830.0366300366301,799.8168498168499,807.4725274725275,831.2454212454213,747.8388278388279,-0.241699,0.037964,0.972961,5.248718,-3.723450,-0.448608,1,1,1,1,1,50.000000
2021-04-25 22:32:31.871,1.042559170758933,1.052980458494167,1.063836000395288,0.7562093977364576,0.8230332592382482,1.001267498579333,0.5324926439469797,0.5061204891674776,1.070203266441182,0.9692154496147247,0.6187235231011797,0.6881137825732921,0.4059701491411283,0.394340754095669,0.279074293562404,0.4396073727844292,0.1751662378161944,0.1414619555711289,0.08399393761299513,0.3651930692418527,787.3260073260074,805.8608058608058,796.996336996337,795.7875457875458,739.7802197802198,-0.227966,0.031433,0.977600,3.865509,-4.224396,-1.256104,1,1,1,1,1,50.000000
2021-04-25 22:32:32.864,1.287051377889245,0.742408785809078,0.8343930604301371,0.8554853961095888,0.9264653953762135,0.3996218382417689,0.3802338637587605,0.489942205553199,1.033868799364284,0.4855151195417717,0.3250078475751677,0.6964691384993469,0.3865501662777678,0.2514827584740222,0.1724852398987057,0.4578838057157968,-0.02236209681945167,0.08510562294244771,-0.03141885051677282,0.3211068290674806,784.9084249084249,805.0549450549451,797.3992673992674,793.3699633699634,657.5824175824176,-0.298950,0.078064,0.960571,3.858032,3.013153,14.437714,1,1,1,1,1,50.000000
2021-04-25 22:32:33.369,,,,,,,,,,,,,,,,,,,,,,,,,,,,,,,,,,,,,,/muse/elements/blink
2021-04-25 22:32:33.859,1.528539578250577,1.418855517512836,0.7158923366614726,1.139336414989975,1.139187668669738,0.9841291324834062,0.2605625126965199,0.8338166958459627,1.033868799364284,0.6456420120876426,0.3635358720888686,0.6422135941260314,0.6807932183845681,0.3744593673504066,0.2647044679983268,0.6313897714790528,-0.01345315797722299,0.2049277956173413,0.1064418526911748,0.1637001415034435,797.8021978021978,787.7289377289378,805.8608058608058,798.2051282051282,708.7545787545788,-0.205750,0.062683,0.994141,7.446899,-6.310425,1.046753,1,1,1,1,1,50.000000
2021-04-25 22:32:34.450,,,,,,,,,,,,,,,,,,,,,,,,,,,,,,,,,,,,,,/muse/elements/blink
2021-04-25 22:32:34.860,1.452521504773306,1.624759610009423,1.408156781633424,1.160049328114737,1.131021241348301,1.136440326856565,1.031883167915136,1.016970501177737,0.8524140662996788,0.6527967836732724,0.7984119471462305,0.5952139135288501,0.7848154872482199,0.2711982787534479,0.3866087152688774,0.6846147196974778,0.1532236816996014,0.1417974823118507,-0.00682374164576248,0.04881029909004519,798.2051282051282,797.3992673992674,808.6813186813187,809.8901098901099,849.7802197802198,-0.263550,0.033997,0.976257,0.747681,-0.740204,-1.413116,1,1,1,1,1,50.000000
2021-04-25 22:32:35.861,0.53222484856912,0.8149739004381761,1.525785003981589,1.160049328114737,0.2675148067164666,0.4184941606077902,1.095359926577302,1.016970501177737,0.7689786100567981,0.373727707913547,0.7920538860234342,0.5952139135288501,0.8072887273759144,0.2745980909040502,0.3990885307892554,0.6846147196974778,0.3563188877368754,0.3372671950291896,-0.02198011087651897,0.04881029909004519,792.5641025641025,799.0109890109891,798.6080586080586,798.6080586080586,686.5934065934066,-0.283142,0.014771,0.966980,4.097290,-4.478607,0.186920,1,1,1,1,1,50.000000
2021-04-25 22:32:36.793,,,,,,,,,,,,,,,,,,,,,,,,,,,,,,,,,,,,,,/muse/elements/blink
2021-04-25 22:32:36.868,0.7355218797131541,0.4653071290055108,0.5921051024108164,0.5478633824037097,0.307119989872753,0.4096630930765938,0.5160251653021874,0.3044628961207938,0.7842029028134612,0.5092207859051662,0.5517499079654308,0.7007524538611953,0.6718945302843014,0.3625922655590442,0.3839375938566518,0.6625469620030172,0.2491525408928898,0.2197619403490813,0.006759135024634485,0.2169995469956613,817.1428571428571,792.967032967033,803.040293040293,813.5164835164835,770.4029304029305,-0.274292,0.024170,0.968445,5.263672,-2.071075,-1.278534,1,1,1,1,1,50.000000
2021-04-25 22:32:37.859,1.189010286097849,0.9263292302343474,1.130765134196033,0.8139151597935932,0.528121556929617,0.6119554902940327,0.8328542552361674,0.6630821150305303,0.5589898964221126,0.6730559029351398,0.7871277725766516,0.8828887582465093,0.4044325825534926,0.4439926912951812,0.2210475194176405,0.6844338376723339,-0.1358646815430516,0.1919013569911479,0.02828743666685911,0.1747396604572135,815.5311355311355,782.0879120879121,814.7252747252747,808.6813186813187,813.1135531135532,-0.268372,0.012024,0.966614,4.381409,-2.706604,-1.188812,1,1,1,1,1,50.000000
2021-04-25 22:32:38.622,,,,,,,,,,,,,,,,,,,,,,,,,,,,,,,,,,,,,,/muse/elements/blink
2021-04-25 22:32:38.859,1.384836819221027,1.322413191618604,1.252126312954467,0.7762902950392796,0.6885857230564079,0.7067297955840083,0.7910492719871077,0.6815252298337442,0.5034292315528039,0.701786361735714,0.8150602693167531,0.9145447235055961,0.4283529183127427,0.2758889190257025,0.3269879916291519,0.66185794780026,0.08327613971174147,0.1743094387557775,-0.01077651270016373,0.2723433963064842,846.959706959707,802.2344322344322,808.2783882783883,850.1831501831502,953.7362637362637,-0.269226,0.019287,0.968445,5.891724,-3.955231,0.044861,1,1,1,1,1,50.000000
2021-04-25 22:32:39.865,0.7758116876079462,1.181847395555645,0.9967950212247852,0.6768476372667802,0.3904650684745849,0.9418474878798784,0.4811723622258324,0.5050673325889957,0.41949998741793,0.8947644884304237,0.4928475424928606,0.3071459636035093,0.3737495183205842,0.2264247471285053,0.3917851305718543,0.5945533610525199,0.03370179518358268,0.1024524049762003,0.03801379612883377,0.1180609480694811,789.3406593406594,802.2344322344322,803.8461538461539,794.1758241758242,701.0989010989011,-0.262817,0.023010,0.967712,5.562744,-3.917847,-0.463562,1,1,1,1,1,50.000000
2021-04-25 22:32:40.859,0.4903560486808254,0.3972216650579116,0.5339659242312951,0.586201441150071,-0.02743653575242633,-0.06882654184500221,0.1315100233978884,0.1465069731004251,0.6636125781425253,0.4099651487470735,0.4533964797839124,0.2484472735302788,0.2840931073321084,0.3392421461376068,0.3731004103957113,0.4976151853810525,0.06238908569053057,-0.03196463597525666,0.1216840349435693,0.2201310198674385,833.2600732600733,817.1428571428571,786.9230769230769,818.7545787545788,765.1648351648352,-0.262268,0.025513,0.969604,3.730927,-3.349609,-1.218719,1,1,1,1,1,50.000000
2021-04-25 22:32:41.561,,,,,,,,,,,,,,,,,,,,,,,,,,,,,,,,,,,,,,/muse/elements/blink
2021-04-25 22:32:41.859,1.000855439986827,1.045420025576965,1.26119409229124,0.7918221222340486,0.37574204010179,0.7832518001537633,0.6828925393965266,0.5766168570066051,0.6333626993887468,0.7416571617756194,0.8449403539669773,0.909849151984455,0.2718384105677304,0.3161586443841916,0.2617315753644446,0.5114468378004711,0.1810658635191179,0.1602129619654805,0.09688457863690031,0.3391560880503397,845.7509157509157,789.3406593406594,792.967032967033,841.3186813186813,940.0366300366301,-0.257812,0.022156,0.970947,4.815063,-3.693542,-0.396271,1,1,1,1,1,50.000000
2021-04-25 22:32:42.861,1.115327029831167,1.020212773220457,1.301613490161382,0.5764499556430313,0.4025366445610621,0.8731870475087052,0.7766217587006008,0.4442671774757273,0.4586714631273102,0.7689670912856875,0.7414857125839562,0.740880580571274,0.5371352076816901,0.3739805779399323,0.2824084725751571,0.6468370680684364,0.1300653755704989,0.1247580100892779,0.09368065787105496,0.2822456285801261,795.3846153846154,790.952380952381,809.4871794871796,806.2637362637363,678.5347985347986,-0.253357,0.043884,0.971130,7.274933,-7.820740,0.471039,1,1,1,1,1,50.000000
2021-04-25 22:32:43.859,0.9309299258415722,0.8997753152156356,1.058299264674817,0.6264919954530973,0.7818780719057683,0.6581042177812154,0.5561340831644377,-0.1102664828762195,0.8881728993965082,0.6704736610504187,0.7583938469996214,0.8090900287589493,0.4050785948415923,0.296126821753657,0.1893896558382687,0.5348736093414216,0.03885356847316402,0.1409515194471435,0.1222690447125459,0.2126438278784352,766.7765567765568,803.8461538461539,804.6520146520147,753.8827838827839,720.0366300366301,-0.212158,0.036865,0.971008,4.897308,-2.743988,0.500946,1,1,1,1,1,50.000000
2021-04-25 22:32:43.991,,,,,,,,,,,,,,,,,,,,,,,,,,,,,,,,,,,,,,/muse/elements/blink
2021-04-25 22:32:44.870,1.493923611383765,0.8975222259006945,1.123694639226387,1.42692863829665,1.171401374189734,0.6745055189629702,0.61799549141259,1.092950318850533,0.9311057764159489,0.663737588628621,0.758406621335754,0.9173765033394414,0.3686283741226344,0.2402437870814396,0.140986453673851,0.574811491204802,0.04608380939250746,0.1755814279088983,0.04172657303585192,0.1476929934053675,788.9377289377289,799.8168498168499,799.8168498168499,807.4725274725275,914.6520146520147,-0.249512,0.039368,0.973694,6.041260,-1.562653,1.121521,1,1,1,1,1,50.000000
2021-04-25 22:32:45.416,,,,,,,,,,,,,,,,,,,,,,,,,,,,,,,,,,,,,,/muse/elements/blink
2021-04-25 22:32:45.861,1.260852743339038,0.7798158568238747,0.9480086281472767,1.255374371266976,0.937031407061433,0.6441255079001461,0.5420977355037369,0.9360095639122423,0.8401870547726906,0.7554177836093162,0.2075590755901746,0.7959130057650424,0.4744561731606495,0.3104507954429177,0.2219120730789405,0.5263079086029609,0.2030667838204615,0.2345222251269164,0.05723409584454224,0.1214781030659954,775.6410256410256,796.996336996337,789.7435897435897,775.2380952380953,666.0439560439561,-0.218079,0.107178,0.974426,2.564545,-5.973969,-1.614990,1,1,1,1,1,50.000000
2021-04-25 22:32:46.858,0.6987777476588334,0.933742885737221,1.115301158673179,1.113065720632979,0.2788731465512446,0.7003738504904052,0.6979179626559291,0.7385553771090587,0.5572118464631445,0.7572514738739452,0.3611815731910866,0.7643237907840749,0.4842232455093481,0.3047447846093183,0.2393342840119594,0.6136107810434891,-0.1165118304979654,0.1632220415882369,-0.001102987913865875,0.4544475463206064,813.5164835164835,807.4725274725275,802.2344322344322,800.2197802197802,688.2051282051282,-0.181458,0.083984,0.982300,3.843079,-1.300964,2.848663,1,1,1,1,1,50.000000
2021-04-25 22:32:47.866,0.7922076703061386,1.130353538371442,1.386752025322482,1.07116602236184,0.8764579737672534,0.7713789477079157,0.851231958549027,0.863441405009218,1.051979244436311,0.8400852305345023,0.7575996824632547,1.077053269932541,0.5483013327678014,0.4286519607891171,0.4645311135707317,0.6316101875957338,0.1846043771606053,0.2429457586182826,0.01931628467381156,0.4331233215818315,811.0989010989011,811.5018315018315,797.3992673992674,821.978021978022,847.7655677655678,-0.187073,0.071106,0.981506,4.172058,-2.691650,-2.257996,1,1,1,1,1,50.000000
2021-04-25 22:32:48.176,,,,,,,,,,,,,,,,,,,,,,,,,,,,,,,,,,,,,,/muse/elements/blink
2021-04-25 22:32:48.858,0.9391638159667376,1.313389710167518,1.380974293913515,0.8882061192481649,1.065838664729635,0.9309606978396244,0.9478204213057727,0.9331887189038145,1.038659485090774,0.8097633876131156,0.8052543426071241,1.101307552126453,0.5356991600579456,0.3812032318399656,0.4484742186157777,0.6239614582979972,0.2346689437005032,0.2896217999272934,0.1605864189495718,0.4322345693692449,772.8205128205128,793.3699633699634,810.6959706959707,781.6849816849817,694.2490842490843,-0.190308,0.068604,0.974060,4.822540,-2.811279,-0.261688,1,1,1,1,1,50.000000
2021-04-25 22:32:49.858,0.3286945408233364,1.062236375830195,0.8561341859673566,0.428777400445944,0.2133477203118001,0.6765805131190408,0.6471067906117062,0.4816198577191014,0.4288060294727895,0.4902474439985803,0.5659947995800716,0.5368681897915735,0.2074613171054931,0.2056494947776227,0.3164410905164934,0.4729848543073173,0.2391983685658875,0.2316242736633534,0.1222289029985204,0.3688912016058224,792.5641025641025,794.5787545787546,811.5018315018315,802.6373626373627,701.5018315018315,-0.188721,0.076721,0.983398,3.985138,-2.601929,-0.949554,1,1,1,1,1,50.000000
2021-04-25 22:32:50.868,0.6744808632523941,0.5318068083886799,0.8427739703030376,0.5994096968115787,0.4354228082069087,0.2207262567300371,0.5622074153192979,0.681745653727186,0.6160370753980035,0.3721234920864215,0.6037467706921841,0.7252133334234567,0.2708424958197297,0.3415685817332121,0.322669478264172,0.4234492681563296,0.1123290005161799,0.3192608693249815,0.06880641553552107,0.3036282223579673,797.3992673992674,791.3553113553114,803.8461538461539,810.6959706959707,872.3443223443223,-0.185242,0.072693,0.984192,4.575806,-2.400055,-1.315918,1,1,1,1,1,90.000000
2021-04-25 22:32:51.030,,,,,,,,,,,,,,,,,,,,,,,,,,,,,,,,,,,,,,/muse/elements/blink
2021-04-25 22:32:51.858,0.7588081309475405,1.20288314102297,1.386893137645058,0.9748232032751809,0.6433090208481971,0.9475919628679784,0.9334282108576892,0.9987654287302336,0.5313060261249126,0.5202440992223748,0.7858251368721259,0.6051001903777161,0.3916380798088595,0.4558981502780958,0.3142042537273831,0.3808676696895109,-0.01280650002222857,0.4126969941734316,-0.04797822631029437,0.3666766575363967,784.9084249084249,795.7875457875458,795.3846153846154,791.3553113553114,685.7875457875458,-0.193298,0.063782,0.987427,5.607605,-2.594452,0.209351,1,1,1,1,1,90.000000
2021-04-25 22:32:52.858,0.1277782787968862,0.8923910939293401,1.005441395219276,0.6250917185419645,0.3341560075574186,0.689299667333181,0.5890489351561832,0.5394792684377646,0.7267348804090885,0.4689664292308452,0.7012731977419367,0.7436382014202879,0.2114398523768899,0.4040989806254242,0.4062723794748335,0.3598024752389114,-0.07133354610910185,0.4977209212285542,0.1571440628085355,0.01978903166848277,786.1172161172161,811.0989010989011,780.4761904761905,782.0879120879121,628.5714285714286,-0.197632,0.071716,0.981201,4.448700,-1.876678,-2.317810,1,1,1,1,1,90.000000
2021-04-25 22:32:53.466,,,,,,,,,,,,,,,,,,,,,,,,,,,,,,,,,,,,,,/muse/elements/blink
2021-04-25 22:32:53.870,0.126797096912883,0.3275996757422525,1.139192163073797,0.6764327316222152,0.4030583838044929,0.3061357086445127,0.7811764155013573,0.5227419665930407,0.6850577149144025,0.2796011792243482,0.6938836137831488,0.7907983536442846,0.301816643851861,0.3382840207075098,0.3687317500116893,0.4025136991838561,-0.05471728368405833,0.3149285107542784,0.1174943542668227,-0.02686220194813529,818.7545787545788,815.5311355311355,776.4468864468864,809.0842490842491,888.0586080586081,-0.207336,0.069153,0.978027,4.433746,-2.527161,-0.927124,1,1,1,1,1,90.000000
2021-04-25 22:32:54.858,0.9609863462273235,0.9947606115240546,1.414173881548423,0.3579057146498985,0.2772625287759934,0.6881964941673434,0.9051105514830724,0.6283729554446736,0.3202006866888151,0.8805581473603067,0.6324370130474086,0.5776415494583534,0.4343850076613891,0.3832883763761125,0.3560265165485799,0.3614904611355528,0.2710854901324894,0.269543285345594,0.1263373308178316,0.4494518399325485,784.1025641025641,800.2197802197802,807.4725274725275,794.1758241758242,718.4249084249085,-0.217041,0.062134,0.981689,4.545898,-2.714081,-1.143951,1,1,1,1,1,90.000000
2021-04-25 22:32:55.858,0.7137873594343038,0.8246291565023213,0.7533435361447146,0.435170520690782,0.3366613644539374,0.3773531439960202,0.2835847750026561,0.3703932131998046,0.5007510472670029,0.8335969822406613,0.5143022463008967,0.5918250497052053,0.5046257260190955,0.255882644661542,0.2876554895420918,0.359131233766861,0.1378317847525261,0.3127699575663124,0.1081737322405422,0.2814807296901913,790.5494505494506,808.6813186813187,791.7582417582418,786.5201465201466,672.0879120879121,-0.212524,0.063171,0.979553,5.084229,-1.973877,-1.338348,1,1,1,1,1,90.000000
2021-04-25 22:32:56.290,,,,,,,,,,,,,,,,,,,,,,,,,,,,,,,,,,,,,,/muse/elements/blink
2021-04-25 22:32:56.867,0.8613654790984758,1.027247433669502,1.362978234532894,0.8179207387868741,0.5709352478961183,0.9269562981324474,0.9602110509760619,0.3292523486945725,0.4130301590404082,0.777062133184419,0.8968789676668671,0.7127107921270783,0.4502687162986106,0.4430217407450653,0.2609357591158311,0.297997084018292,0.07272374654046712,0.1974741635128377,-0.05832945494389083,0.127760148095522,808.2783882783883,798.2051282051282,795.7875457875458,821.5750915750916,939.2307692307693,-0.213013,0.035950,0.979553,-0.553284,-1.345825,-1.996307,1,1,1,1,1,90.000000
2021-04-25 22:32:57.858,0.7838778691239839,0.8852327076157449,1.203887204626489,0.506310380997357,0.3572320487704582,0.7871082250266762,0.7936873577404048,0.09871973282113633,0.3529079434129327,0.7750472031671017,0.8884121360373231,0.151017813275682,0.2343787037310049,0.3677804284789911,0.3001685239289816,0.5498752944732557,-0.06009185803213871,0.2023349152709676,-0.02150795818466263,0.1963719352455656,781.2820512820513,799.4139194139194,801.4285714285714,793.7728937728938,778.4615384615385,-0.224304,0.006409,0.974365,5.263672,-0.837402,-0.201874,1,1,1,1,1,90.000000
2021-04-25 22:32:58.869,0.6395656691279434,0.2535808368144306,0.2656637102617342,0.4696799354562854,0.5243305926309224,-0.02097757145598188,0.1801880324842311,0.4236523886574096,0.8310223725801171,0.2998089729989853,0.3971082654474031,0.5455926223117749,0.4634993834007779,0.2373292413024223,0.1893417260365314,0.578710545854169,0.0999735152748953,0.1938161436182703,0.1654175874237498,0.3589543930844046,886.8498168498169,836.0805860805862,765.1648351648352,851.3919413919414,817.1428571428571,-0.223267,0.016113,0.972168,5.398254,-4.403839,-2.302856,1,1,1,1,1,90.000000
2021-04-25 22:32:59.858,1.338045506982526,0.939234789368833,0.8998896530214884,0.7493897850732597,0.838575260594877,0.4138710409619232,0.6186216330936295,0.4790885872026897,1.155010061349412,0.8030126447954161,0.5192573769089173,0.734939471008149,0.6300367130815296,0.2783825824784318,0.2830907407669972,0.6879984361200845,0.1268411950942927,0.1403713018418586,0.116634472553281,0.3264891453374562,828.021978021978,801.8315018315019,791.7582417582418,816.7399267399268,968.6446886446887,-0.237549,0.027039,0.979065,4.545898,-2.332764,-1.233673,1,1,1,1,1,90.000000
2021-04-25 22:33:00.862,1.204756761945961,0.8495048021935213,0.8213773827932076,0.7282557208242357,0.7841518805456013,0.3811704720601807,0.5688398676632344,0.3428907843284099,1.168432345364298,0.8166509208597208,0.6078220610049443,0.7719277212976987,0.5654380848076667,0.2782932194188122,0.3312280623803385,0.6589561350611065,0.0397443899736601,0.161603781907454,0.05395010539466627,0.2366202917017609,790.1465201465202,801.8315018315019,803.040293040293,803.040293040293,819.5604395604396,-0.238220,0.036804,0.975220,4.545898,-3.200073,-1.734619,1,1,1,1,1,50.000000
2021-04-25 22:33:01.672,,,,,,,,,,,,,,,,,,,,,,,,,,,,,,,,,,,,,,/muse/elements/blink
2021-04-25 22:33:01.862,1.226339683277391,0.9081332955886672,0.8778488542625479,0.9200301497690115,0.96197379232983,0.6409952620142833,0.5693412826033611,0.4996154635312636,0.8829848412908348,0.5724847691481364,0.7917702857354465,0.8686438337680981,0.5917510199483672,0.332779454541286,0.3667592203746842,0.6570974674422164,0.1407477899180086,0.2782243708676498,0.03867510664792489,0.3187347962189296,794.981684981685,798.6080586080586,803.4432234432235,810.2930402930403,720.4395604395604,-0.239563,0.030884,0.973389,4.725342,-2.422485,-1.099091,1,1,1,1,1,50.000000
2021-04-25 22:33:02.862,1.541471419166191,1.218023166330263,0.949438578594984,1.18132006823119,1.176931919466355,1.024982044110564,0.6561113992127287,0.7421046200884858,0.8732863877366683,0.9061447429357962,0.7653950989826355,0.6801814745635928,0.4789245452134467,0.2513534166579167,0.1934249884847417,0.5290890615774448,0.1464683772414792,0.1789545583903295,0.05031258048015202,0.3350760288328388,832.0512820512821,796.5934065934066,795.7875457875458,826.007326007326,942.4542124542124,-0.239441,0.034302,0.978760,5.330963,-3.514099,-0.867310,1,1,1,1,1,50.000000
2021-04-25 22:33:03.856,1.488470961270253,0.8761221644219697,0.7187915466496155,0.93933118452989,1.216563716030659,0.6986637945313766,0.3760092332005887,0.7642613474847367,1.085189528802147,0.6716155257741468,0.3572533399008205,0.702372408307618,0.3220653494233168,0.2807643744493054,0.261487215600969,0.4641154928188249,-0.01682293277684624,0.1726927945785031,-0.001261631616961516,0.2783113348895356,786.1172161172161,796.1904761904763,802.2344322344322,803.040293040293,787.7289377289378,-0.244995,0.046143,0.972168,3.992615,-2.691650,-1.248627,1,1,1,1,1,50.000000
2021-04-25 22:33:04.866,1.480432042572584,0.93224540863466,0.7825554080012783,1.01701006568788,1.171361250562421,0.7131603992511992,0.2911276287293053,0.8474703594952081,1.217247212999954,0.7326418386177319,0.3923461351676448,1.006052086939244,0.4425028144286578,0.340595967549612,0.3240708646220101,0.6225307550484016,0.2239256522684853,0.1072823644415804,0.1052524315596503,0.2566456355812914,816.7399267399268,793.3699633699634,799.0109890109891,812.3076923076924,768.7912087912088,-0.249512,0.039612,0.977356,2.048645,-2.856140,-1.742096,1,1,1,1,1,50.000000
2021-04-25 22:33:05.425,,,,,,,,,,,,,,,,,,,,,,,,,,,,,,,,,,,,,,/muse/elements/blink
2021-04-25 22:33:05.856,1.403480815734299,1.136150586770732,1.347697107979473,1.425299484921014,1.034461741455427,0.4797687648511087,0.8843078531764093,0.960721465417945,0.9763412773352997,0.449550145915793,0.2694164111404952,0.8903207047714682,0.4066493832467787,0.2279881336984634,0.4175094792955342,0.744542809582447,0.2854090289460555,0.1607255082323263,0.1002716732672516,0.378937344415713,840.1098901098901,802.6373626373627,807.0695970695971,847.7655677655678,976.3003663003664,-0.405701,0.033203,0.931335,6.459961,5.951538,-4.104767,1,1,1,1,1,50.000000
2021-04-25 22:33:06.857,1.48881734066407,1.332808112521425,1.4841262842713,1.639633342261648,1.028441766448193,0.4291401040803631,1.008268641571473,1.00994860447227,0.5350775138744006,0.08121121606147275,0.2301549583787159,0.6100394347589134,0.3671091293738,0.203816206049171,0.2665509508325576,0.6981888909601265,0.3048132808596123,0.04700531675031066,0.2312078421598989,0.4675726221398236,783.6996336996338,799.0109890109891,805.4578754578755,805.4578754578755,789.7435897435897,-0.366516,0.044006,0.934021,4.179535,-2.826233,5.405731,1,1,1,1,1,50.000000
2021-04-25 22:33:07.489,,,,,,,,,,,,,,,,,,,,,,,,,,,,,,,,,,,,,,/muse/elements/blink
2021-04-25 22:33:07.858,0.5431963771831949,0.8525832878830183,0.887179856147314,0.1521506877149548,0.445397553844543,0.5680875653757458,0.491600118132107,-0.01727044573823631,0.3494654801099684,0.7148727542149546,0.4132344997031209,0.5479066628937755,0.4907740127869987,0.3787434055454717,0.2405856783586958,0.6151058020556162,0.2046510864167923,0.2869662539075915,0.1613312112588423,0.3144273152285306,844.5421245421246,832.4542124542124,753.4798534798535,801.8315018315019,772.4175824175825,-0.378967,0.035950,0.928284,10.101166,-5.749664,-14.183502,1,1,1,1,1,50.000000
2021-04-25 22:33:08.857,1.047045757592416,1.176938039701832,1.288264931357568,0.5923877251389892,0.5095714059538805,0.7331291449191795,0.8915077802197048,0.9085989735233364,0.6810288012877431,0.7851800811077552,0.7338681958860989,0.315296461550369,0.4703942540925995,0.4870907552334212,0.2516680481127211,0.4649804255502736,0.2702357499622898,0.459921723909525,0.2268450902898682,-0.1692468291375777,803.4432234432235,793.3699633699634,795.3846153846154,810.2930402930403,1025.054945054945,-0.344299,0.035278,0.943176,4.456177,-2.886047,0.067291,1,1,1,1,1,50.000000
2021-04-25 22:33:09.857,0.9002792672535491,0.9432574698355735,1.251250883714454,0.7008945925830317,0.6971326040561674,0.6002098029518765,0.8012678063920983,0.8035716926128814,1.068274420346554,0.6945941689924973,0.7791871166395042,0.9527668267234379,0.6748612655919431,0.3489061365367134,0.417924945896206,0.6146440370030081,0.4070964472197437,0.364445312192392,0.1410547724262913,0.3266176031796976,776.8498168498169,810.2930402930403,795.7875457875458,779.2673992673992,802.6373626373627,-0.323181,0.050781,0.947021,5.136566,-3.200073,-0.986938,1,1,1,1,1,50.000000
2021-04-25 22:33:10.121,,,,,,,,,,,,,,,,,,,,,,,,,,,,,,,,,,,,,,/muse/elements/blink
2021-04-25 22:33:10.867,1.158945158107149,1.458483826913559,1.141400234233969,0.825294099936293,0.6557893192133686,1.051407275885281,0.8577066844953869,0.9482555105698679,0.6332624625032998,0.6717176807132713,0.7500492204528529,0.8591014858145896,0.5106149104238336,0.1809853776603212,0.3026381042467971,0.685261797427719,0.2371581631289668,0.1539567002111549,-0.03193367778456913,0.3980535910645515,815.5311355311355,796.996336996337,796.996336996337,823.1868131868132,803.040293040293,-0.323425,0.051758,0.953979,5.054321,-2.444916,-0.822449,1,1,1,1,1,50.000000
2021-04-25 22:33:11.857,0.2850435987163578,1.251699507917592,0.5405510018495087,0.3070125020622883,0.3459344295809636,0.8117473895731148,0.3917344301813858,0.4892380931214866,0.6676936515892977,0.4941676752846394,0.1509597533983819,0.457732935225426,0.4329735422935684,0.08039964093238794,0.2636975497792047,0.5891589384981349,0.06734378369740762,0.08899186256627842,-0.008843835041185209,0.2507806003086531,816.7399267399268,801.4285714285714,799.4139194139194,835.2747252747253,945.6776556776557,-0.326538,0.062561,0.953674,5.256195,-2.796326,-0.306549,1,1,1,1,1,50.000000
2021-04-25 22:33:12.856,0.4279311280166682,0.5412534346764257,0.6846021958119175,0.4236856754831628,0.5025566481459933,0.1966848556676674,0.4198845402149313,0.5681283120789052,0.6725673532638132,0.461726317802913,0.5867512646273656,0.7619524267786647,0.428271928960627,0.1947274755329489,0.3638290948135934,0.514101145237189,-0.04726038721094198,0.1631965841372936,0.08938893532604836,0.1049418054208289,693.4432234432235,847.3626373626374,813.919413919414,703.5164835164835,745.8241758241759,-0.320374,0.066101,0.951355,5.316010,-2.923431,-0.194397,1,1,1,1,1,50.000000
2021-04-25 22:33:13.068,,,,,,,,,,,,,,,,,,,,,,,,,,,,,,,,,,,,,,/muse/elements/blink
2021-04-25 22:33:13.857,0.5823906942179071,1.457958920254459,1.090234309486352,0.6981628987622839,0.6966787945125621,1.046717320614423,0.7722364582322302,0.7502076770557654,0.5100866007525569,0.8221462231576578,0.6392834221437751,0.7609166940456352,0.3644849233942345,0.380471241694583,0.2709500010083835,0.4764538671543972,-0.0443338167018688,0.07018364513064612,-0.105691579824685,-0.1775969543497758,805.0549450549451,814.3223443223443,800.6227106227107,799.8168498168499,653.5531135531136,-0.308472,0.069641,0.951904,4.433746,-3.768311,-1.338348,1,1,1,1,1,50.000000
2021-04-25 22:33:14.857,0.6827304055325047,1.30351770753821,0.4501236151833946,0.2435997790095698,0.1745109762643464,0.8551486938622544,0.2079484583712027,0.3687452633483481,0.2961620654199209,0.8495742906499832,0.4454560370994822,0.4537619679353822,0.559331462104048,0.4623218417911184,0.1277280395804156,0.6334777012182321,0.009338001293136946,0.1946298781980466,-0.04888870555244507,0.1022019784366642,819.5604395604396,801.4285714285714,796.996336996337,831.2454212454213,990.4029304029305,-0.306152,0.068115,0.954834,4.725342,-2.938385,-1.151428,1,1,1,1,1,50.000000
2021-04-25 22:33:15.506,,,,,,,,,,,,,,,,,,,,,,,,,,,,,,,,,,,,,,/muse/elements/blink
2021-04-25 22:33:15.865,0.3670886425151358,0.5845550641228423,0.935428305907377,0.1204587711040381,0.4744549829131104,0.1902397207195117,0.4456711054554739,0.7604837930515275,0.5583715424393907,0.5740955719369107,0.5263506179824963,0.7170080544323796,0.6117828500759188,0.3000574868788791,0.2757239910027455,0.6160988025568237,0.04440434685483094,0.2277052527794628,-0.02595785896202172,0.03249746432291255,804.6520146520147,806.2637362637363,805.0549450549451,821.1721611721612,757.1062271062272,-0.314697,0.063477,0.950562,4.493561,-3.334656,-0.643005,1,1,1,1,1,50.000000
2021-04-25 22:33:16.857,0.7351154773162357,0.9532705903574136,1.221861381062264,0.5727630664921436,0.4865128510633961,0.5478800799398855,0.7208553078220298,0.7306390670235546,0.3453804859096912,0.5492436492494496,0.4385872569549796,0.2928157667338726,0.4918802784650524,0.291866300465434,0.2460733981183452,0.6036480234184735,0.2590295009410643,0.2563704340442135,0.1170189955271881,0.1857558893872245,772.014652014652,810.2930402930403,794.5787545787546,770.8058608058608,706.3369963369963,-0.322266,0.065613,0.948914,4.224396,-3.110352,-0.957031,1,1,1,1,1,50.000000
2021-04-25 22:33:17.512,,,,,,,,,,,,,,,,,,,,,,,,,,,,,,,,,,,,,,/muse/elements/blink
2021-04-25 22:33:17.857,0.8722689728640229,1.110012424691773,1.17680913332175,0.7419564328485166,0.701825397621536,0.8956438137234259,0.7404386630786221,0.7911712169379598,0.6019873011421212,0.8409244396504241,0.5314571555503854,0.5212647964551964,0.5106001104376149,0.3531894841695666,0.4405297089902024,0.6962851051571749,0.2085894080377307,0.2309332805095447,0.202610832749301,0.147041494051016,811.5018315018315,792.1611721611722,802.2344322344322,827.2161172161173,972.2710622710623,-0.323608,0.060974,0.954163,4.179535,-3.633728,-0.702820,1,1,1,1,1,50.000000
2021-04-25 22:33:18.865,0.3056667219651359,1.251898577357259,1.109174682119284,-0.07743892899668847,0.2558369018001141,0.9621592673356855,0.7024359257547443,-0.0691127468623324,0.513860912242066,0.8288953948141325,0.4606396698140771,0.2930838184819226,0.3611743562227895,0.2064840427642475,0.3834387684474888,0.3232157756159648,0.1279211467236794,0.1907610146274434,0.1013357324477292,0.4002152397985954,790.1465201465202,807.0695970695971,799.4139194139194,809.4871794871796,766.3736263736264,-0.311646,0.069641,0.954285,5.659943,-3.910370,-0.702820,1,1,1,1,1,50.000000
2021-04-25 22:33:19.152,,,,,,,,,,,,,,,,,,,,,,,,,,,,,,,,,,,,,,/muse/elements/blink
2021-04-25 22:33:19.857,0.3766467222010774,0.7000101168273641,1.106327668137643,0.03162777394061785,0.3470567323737956,0.5868258661565333,0.6907404453714153,-0.06177823597399126,0.5562384583121499,0.5516870150774207,0.2265402459769263,0.3071093456308728,0.3401426766061959,0.2032925142890991,0.227678051600217,0.3448253252489398,0.07826631743321162,-0.07007220314971192,0.02617123536466304,0.3776100124277605,796.1904761904763,801.025641025641,801.025641025641,792.5641025641025,673.6996336996338,-0.321533,0.057251,0.955200,4.246826,-2.385101,-1.869202,1,1,1,1,1,50.000000
2021-04-25 22:33:20.866,0.8799603905834691,0.9128353574412704,1.373580667251007,0.7007753285822855,0.4648108293375363,0.7534339311553198,0.933108933987292,0.2246198708134075,0.6435268757482467,0.4505219598103804,0.7421715009698112,0.8304350188320779,0.472677031907652,0.2786211991669082,0.2645162565799778,0.5597231844432414,0.1267450762096898,-0.04875795560954693,0.00820204813982656,0.2351964496617466,841.7216117216118,796.1904761904763,803.8461538461539,859.4505494505495,967.4358974358975,-0.314758,0.058167,0.941772,4.179535,-3.327179,-0.867310,1,1,1,1,1,50.000000
2021-04-25 22:33:21.856,1.260676840504072,0.2880232552056152,0.695386441008913,1.169128842073634,0.9400197700203435,0.1826754620309021,0.4527587092645446,1.014597860281429,0.9196424714337041,0.2154301673932945,0.5464969410789827,0.9927908915620255,0.6025941044399145,0.3128823235949381,0.4058716319517149,0.6391928641061002,0.1672269157969119,0.09035149576288216,0.07460936437413689,0.3252118154789319,794.981684981685,798.6080586080586,790.952380952381,797.3992673992674,770.4029304029305,-0.312134,0.060913,0.955566,4.269257,-3.140259,-0.732727,1,1,1,1,1,50.000000
2021-04-25 22:33:22.578,,,,,,,,,,,,,,,,,,,,,,,,,,,,,,,,,,,,,,/muse/elements/blink
2021-04-25 22:33:22.856,1.071867487105399,0.5330372381954216,0.7161526581359561,1.019338555683611,0.7441722773660789,0.3841316274099354,0.5053062714022833,0.8772870237297801,0.6697631519804875,0.6220050054548356,0.5149821416596578,0.9542023472336284,0.4654703986943902,0.2558591310266289,0.3775032801347112,0.529272078031659,0.04293332240422086,0.1131616366211338,0.06809431714088994,0.3451095293212243,785.3113553113553,790.952380952381,809.0842490842491,795.7875457875458,706.7399267399268,-0.315063,0.057434,0.950684,4.822540,-2.841187,-0.620575,1,1,1,1,1,50.000000
2021-04-25 22:33:23.856,0.9988457151410911,1.109145373462166,0.7365946916692464,0.8487312480523321,0.5030814274925385,0.7733198100809183,0.477801502544061,0.7051810689272728,0.6072091818786653,0.6766612246869586,0.4817153995709734,0.6040985232702665,0.3906564230203637,0.3316853296076663,0.3502278375072599,0.4325995459567963,0.1153318596067502,0.1543407183953883,0.1942613909906029,0.199897903629608,842.5274725274726,807.4725274725275,800.2197802197802,841.7216117216118,908.6080586080586,-0.312561,0.059692,0.953796,4.628143,-2.676697,-0.822449,1,1,1,1,1,50.000000
2021-04-25 22:33:24.856,0.9864781009340097,0.7816517709761795,0.8932495807791353,0.6456423249005103,0.6312070784506019,0.331432286714246,0.8059968884104572,0.8514279622974334,0.7530875193843201,0.624680038728364,0.5880635026889761,0.642158284445744,0.5900509958768495,0.3583261338381866,0.3674616459621899,0.5784379671225123,0.1209742885253697,0.1987889035818514,0.1889990472082455,0.1479299845142933,795.7875457875458,803.040293040293,799.0109890109891,796.996336996337,839.7069597069598,-0.316956,0.060791,0.952087,5.024414,-2.145844,-0.545807,1,1,1,1,1,50.000000
2021-04-25 22:33:25.856,0.6541075029734945,0.6152417110646159,0.6229251091785301,0.4041294122454673,0.5865956628188889,0.1984691024500431,0.5483196876324694,0.7256106490744492,0.7268136704317356,0.5431470838222759,0.5431815296443464,0.681684543168885,0.4677123199752107,0.3363658741329066,0.2875066191550601,0.4879739760921052,0.006566078901355749,0.171017471483644,0.09709599772339964,0.1420957020088417,796.996336996337,801.025641025641,785.7142857142858,797.3992673992674,680.5494505494506,-0.313660,0.062256,0.957336,4.000092,-2.915955,-1.256104,1,1,1,1,1,50.000000
2021-04-25 22:33:26.379,,,,,,,,,,,,,,,,,,,,,,,,,,,,,,,,,,,,,,/muse/elements/blink
2021-04-25 22:33:26.856,0.557685648013457,1.214075668712455,1.195690037841653,0.4085825976461649,0.3417182155926031,0.9925638077583185,0.8278950832455628,0.4179775903327116,0.6432004282310869,0.7542998326295047,0.8214367073574707,0.8366883163845849,0.3515387993849433,0.2709511879133921,0.2530749379162132,0.3998571653998675,0.09047467346207477,0.2034014431725947,-0.1345590491392253,0.2186695162619054,814.7252747252747,784.9084249084249,801.025641025641,820.7692307692308,965.8241758241759,-0.313843,0.062073,0.952209,4.493561,-2.826233,-1.106567,1,1,1,1,1,50.000000
2021-04-25 22:33:27.870,0.7512183093800177,1.176382636549895,1.04662065461838,0.2309444364076783,0.3046904651366335,0.9759858449497989,0.649274270454029,0.2331085540155783,0.3255312853490742,0.7542998326295047,0.6629591888758699,0.2318249889295081,0.2504790703114724,0.2790968566548844,0.2508864481709704,0.2997871343349277,0.1350104779708345,0.1526904683106831,0.02944765552467257,0.194034955101224,790.5494505494506,785.7142857142858,799.8168498168499,804.6520146520147,810.6959706959707,-0.304504,0.061157,0.954224,5.001984,-3.319702,-1.151428,1,1,1,1,1,50.000000
2021-04-25 22:33:28.856,0.8544419483409628,0.9385124050365032,1.208724986530054,0.5875095180650901,0.332864940116523,0.4130060050595221,0.909123866584565,0.6415613348616833,0.6283543884735363,0.5783452392309989,0.842483276208026,0.8106421895049404,0.3387504465701293,0.3504111507720477,0.3688220734474604,0.4692623728860329,0.1171585566598341,0.08382562375639468,0.02889106898429518,0.1110284072568921,778.8644688644689,792.1611721611722,813.5164835164835,788.9377289377289,688.2051282051282,-0.307190,0.058289,0.956177,4.859924,-3.020630,-1.278534,1,1,1,1,1,50.000000
2021-04-25 22:33:29.856,1.227744624717288,1.179087125919374,1.349309694308895,0.8564992155768945,0.6153492434117394,0.5113722955723624,1.010261401042827,0.7121019748363997,0.5985262147841655,0.6190463329283752,0.9347879867443658,0.8071667078997169,0.4672055404562801,0.3488390041209177,0.3814312377022708,0.5686429945743998,0.02812257192726126,0.1371273743320455,0.05844616757757921,0.1467243262750381,647.1062271062272,830.0366300366301,833.6630036630037,662.014652014652,915.4578754578755,-0.306335,0.058472,0.964661,5.368347,-2.998199,-0.687866,1,1,1,1,1,50.000000
2021-04-25 22:33:30.031,,,,,,,,,,,,,,,,,,,,,,,,,,,,,,,,,,,,,,/muse/elements/blink
2021-04-25 22:33:30.856,1.489648895027669,1.160907933122141,1.226785398153425,0.7375781085211472,0.7213638572051104,0.7951213833908201,0.8228826502137331,0.6827894380961923,0.2161976293515719,0.8580854098046699,0.7781506728753113,0.3636561786590993,0.4886027942470584,0.3305060093118709,0.3747401674797494,0.5114119521908612,0.1078038898039419,0.3308501071778525,0.1118366868957148,0.2676961251080434,801.025641025641,799.8168498168499,801.4285714285714,801.4285714285714,834.4688644688645,-0.297485,0.064026,0.957336,4.837494,-2.863617,-1.166382,1,1,1,1,1,50.000000
2021-04-25 22:33:31.867,0.5553342816653148,0.7537164603949348,1.016521756786892,0.184757096418783,0.527554181903592,0.6151914239722592,0.5991027339150486,0.3409164915583774,0.4150826671764329,0.8065247560623559,0.6187527549963688,0.4294974195094254,0.2879978228075767,0.2563120592376823,0.3417706054036193,0.4347303261605344,0.07624880886084247,0.1669784479532815,0.1065625885538507,0.2461967111251767,756.7032967032967,804.2490842490843,815.1282051282052,755.4945054945055,748.2417582417582,-0.294373,0.055664,0.957764,4.545898,-3.207550,-1.061707,1,1,1,1,1,50.000000
2021-04-25 22:33:32.133,,,,,,,,,,,,,,,,,,,,,,,,,,,,,,,,,,,,,,/muse/elements/blink
2021-04-25 22:33:32.860,1.391151601939264,0.8067232880052463,1.248978759447263,1.073605024877963,0.8907228676349692,0.5772097893127981,0.7251257593643458,0.8795519423900885,0.9392321805471596,0.4335915143649024,0.7126288381995021,0.9418828639102427,0.4070916654731113,0.277205022382062,0.3975554729841984,0.5572129596561449,0.2525936233532619,0.1356579244333335,-0.0458106621123517,0.2975018299084959,814.3223443223443,811.0989010989011,792.967032967033,819.5604395604396,898.9377289377289,-0.299561,0.056335,0.957947,4.553375,-2.923431,-1.360779,1,1,1,1,1,50.000000
2021-04-25 22:33:33.856,1.178683047949048,0.4018774975319209,0.7401630051931301,1.008585151005593,0.8120685065503955,0.3061642520588244,0.4643163376568388,0.9120031921035361,1.017030267684667,0.5674675194297842,0.7566133992789594,1.006653153165221,0.3977501271101533,0.3646896514588299,0.5016700223740082,0.6253731740555268,0.2238400949979635,0.2827323959133357,0.1018975421156918,0.191208744645891,810.2930402930403,798.6080586080586,796.5934065934066,823.1868131868132,866.7032967032967,-0.301392,0.056152,0.958557,4.418793,-2.153320,-1.263580,1,1,1,1,1,50.000000
2021-04-25 22:33:34.755,,,,,,,,,,,,,,,,,,,,,,,,,,,,,,,,,,,,,,/muse/elements/blink
2021-04-25 22:33:34.856,1.066367465130423,0.8112221094619441,1.156465776059126,0.4463793929265951,0.808788496814297,0.5378622823726549,0.7634386229176651,0.903195740413352,1.070715991386952,0.6751295981143111,0.9068412163770264,1.139467292779988,0.5410540252790548,0.3869108083584592,0.3806568069538984,0.5639100721194024,0.1132432029698333,0.2050995762676126,0.2196689159156386,0.2946449954734344,797.8021978021978,778.4615384615385,797.8021978021978,804.6520146520147,692.2344322344322,-0.299561,0.059631,0.960083,4.508514,-2.519684,-1.226196,1,1,1,1,1,50.000000
2021-04-25 22:33:35.855,1.050349149669475,0.8888193314826575,1.068087294367362,0.4861271368575249,0.5831198572615633,0.7275881126197393,0.8902599083068032,0.4886920478233392,0.986998698972089,0.8923797507151614,0.9814176030354466,0.8597368808741446,0.5997342341410483,0.3774749670861994,0.3514204482348838,0.4039635131935775,0.2010686973967792,0.2254028460654336,0.1047990408086679,0.3531681240035193,813.5164835164835,789.7435897435897,794.5787545787546,812.7106227106227,859.8534798534798,-0.296509,0.058289,0.964600,4.373932,-3.289795,-1.091614,1,1,1,1,1,50.000000
2021-04-25 22:33:36.855,0.4922515053939444,0.2823981916443817,0.4562508861132565,0.3434891477667973,0.3058615265617566,-0.08734619755668184,0.3359711999700619,0.2356724508211034,0.5948491527377238,0.2674481989387492,0.5504381708950256,0.4918613793466164,0.3963797928319387,0.4272584647856473,0.3270144148718399,0.4909973854429945,-0.008529658208967643,0.1838298732552305,0.009098276058482988,0.1653112431782938,836.0805860805862,830.4395604395604,763.956043956044,817.948717948718,822.7838827838829,-0.303284,0.048279,0.957642,4.448700,-3.192596,-1.121521,1,1,1,1,1,50.000000
2021-04-25 22:33:37.432,,,,,,,,,,,,,,,,,,,,,,,,,,,,,,,,,,,,,,/muse/elements/blink
2021-04-25 22:33:37.855,0.7571204082275746,1.155679893730639,1.18055104672246,0.4024602868108181,0.3146268716045904,0.922741715400858,0.7394553949752419,0.2714213240070151,0.3763152016899211,0.7520007642271197,0.555604327667261,0.6012679549972241,0.283916376994363,0.4818465186046196,0.3768015711100211,0.4728266628223975,-0.06759375885057518,0.1727200658275157,-0.02324197516253328,0.1563914322441375,811.9047619047619,811.5018315018315,793.7728937728938,812.7106227106227,797.3992673992674,-0.308105,0.049133,0.961914,4.344025,-2.542114,-0.762634,1,1,1,1,1,50.000000
2021-04-25 22:33:38.854,0.3905397566011179,1.151071506751674,1.011545107643602,0.7175243268535065,0.4157702000317904,0.9301779461348912,0.6126490082788124,0.1136587426865007,0.6326579357641733,0.7333246984675402,0.5538308365338698,0.185014974568688,0.5710221440870191,0.360616925386512,0.3132367145224187,0.6678318487191981,0.3077704902340845,0.1912460892800629,0.09932284104525839,0.4352303297657335,848.974358974359,810.6959706959707,794.981684981685,836.4835164835165,848.1684981684982,-0.308960,0.050537,0.953674,4.388885,-3.050537,-1.099091,1,1,1,1,1,50.000000
2021-04-25 22:33:39.372,,,,,,,,,,,,,,,,,,,,,,,,,,,,,,,,,,,,,,/muse/elements/blink
2021-04-25 22:33:39.567,,,,,,,,,,,,,,,,,,,,,,,,,,,,,,,,,,,,,,/muse/elements/blink
2021-04-25 22:33:39.858,1.153793466826259,0.9695814711176155,1.00367250134698,0.8569695261968285,0.593677075346644,0.7767302413602041,0.459922245452646,0.6100203646557504,0.733152345090919,0.6296590619076773,0.8110878733922329,0.4222966429997677,0.5572985167168135,0.3069262434433278,0.2701527180685708,0.6301118440115827,0.1866280788319406,0.2479843246569298,0.2456309273548016,0.3356360059655555,799.8168498168499,787.3260073260074,812.3076923076924,815.1282051282052,922.3076923076924,-0.306702,0.046997,0.953186,4.747772,-2.549591,-1.308441,1,1,1,1,1,50.000000
2021-04-25 22:33:40.855,1.278595724216864,1.061781472604524,0.9738399331553352,0.8343037853463006,0.8330226661806865,0.9725016490887146,0.6087527693387856,0.7658296827073093,0.7004422562123979,0.6245290625613822,0.6882457979133078,0.4409408556463392,0.4532192875999079,0.23678254349442,0.1988124850847575,0.4330984491843132,-0.03615011905924509,0.2160342924573391,0.1326610072781452,0.2025735866284049,793.7728937728938,811.5018315018315,803.040293040293,801.025641025641,857.032967032967,-0.308350,0.051697,0.954834,4.291687,-2.370148,-1.143951,1,1,1,1,1,50.000000
2021-04-25 22:33:41.856,1.216444889091082,0.9628263876652872,0.9249553296250715,0.5634951746813097,0.689331298501995,0.5667801815895791,0.4357636336799184,0.2999285796267615,0.7236758589905909,0.4206130094930522,0.605736480229656,0.7894345617011533,0.5388305310414772,0.42719985493664,0.3930264914593508,0.6773305250903987,-0.01081038410247385,0.1530730227377269,0.03125751834621569,0.2434442085585033,882.4175824175825,786.9230769230769,778.4615384615385,869.92673992674,787.7289377289378,-0.306458,0.052063,0.958862,4.613190,-2.699127,-0.732727,1,1,1,1,1,50.000000
2021-04-25 22:33:41.884,,,,,,,,,,,,,,,,,,,,,,,,,,,,,,,,,,,,,,/muse/elements/blink
2021-04-25 22:33:42.855,1.448987265543304,1.37375654829225,1.123540945245446,0.8218570860438577,0.742870205719105,0.9182161238029639,0.7469216512159,0.3221803951130572,0.6922193283407733,0.6908930148152181,0.5651153435019225,0.7708413161273089,0.5689433075246725,0.32000094040329,0.423776394120378,0.8053720555444456,-0.02469000858266273,0.05359593092766957,0.1540406159463573,0.2318215543353675,817.1428571428571,803.8461538461539,799.0109890109891,828.8278388278388,898.5347985347986,-0.313660,0.050293,0.955750,4.448700,-2.736511,-0.665436,1,1,1,1,1,50.000000
2021-04-25 22:33:43.860,0.5475349378018569,0.817158333085157,0.6425006780542779,0.4313334160462909,0.1789589889612744,0.432063963566641,0.3573429679049228,0.5047018735605582,0.6072892891241495,0.5537218863140178,0.4941910204478239,0.6545036737132222,0.4536979383735665,0.4000253183447772,0.3761995368553547,0.5073411194676327,0.1152532871076737,0.1550898058417386,0.1234187638216284,0.2091274445550546,803.8461538461539,805.8608058608058,798.6080586080586,790.5494505494506,688.6080586080586,-0.308350,0.052063,0.954834,4.598236,-2.572021,-1.286011,1,1,1,1,1,50.000000
2021-04-25 22:33:44.237,,,,,,,,,,,,,,,,,,,,,,,,,,,,,,,,,,,,,,/muse/elements/blink
2021-04-25 22:33:44.866,0.7340453433301911,1.316670567748169,1.044036863223948,0.4091530020450083,0.4640296350787151,1.228028664988869,0.4618346856555397,0.5485669671594078,0.7093906542472541,0.9857733467096664,0.5510462830615315,0.6383814628158675,0.4636126233275701,0.3821067154816818,0.3784562690556439,0.4299093421006076,0.2080492902740574,0.193961461131718,0.04158704789162801,0.3217887363749017,817.5457875457876,800.6227106227107,806.6666666666667,810.6959706959707,738.974358974359,-0.303650,0.048706,0.958130,5.144043,-3.357086,-0.575714,1,1,1,1,1,50.000000
2021-04-25 22:33:45.855,0.7934449660289596,1.269396072351445,0.6679231909064536,0.855540141012655,0.5461244745557244,1.158751528332591,0.2698520088902892,0.4646068653297684,0.856260787948149,0.9666829416874745,0.2732938038246747,0.848576899832344,0.4046049792028973,0.3531386961776098,0.2359350577728599,0.4511768257806395,-0.1365241982941052,0.1950090197476968,0.1183388427550093,-0.03288200161810689,877.1794871794872,788.9377289377289,807.4725274725275,878.7912087912089,934.3956043956044,-0.310242,0.046326,0.956238,4.329071,-2.616882,-1.069183,1,1,1,1,1,50.000000
2021-04-25 22:33:45.885,,,,,,,,,,,,,,,,,,,,,,,,,,,,,,,,,,,,,,/muse/elements/blink
2021-04-25 22:33:46.854,0.834340913081528,0.8961934361126811,0.7973301843392571,0.8585771613680241,0.5569754355243567,0.5278846683459597,0.324116387756728,0.4135282881626289,0.856260787948149,0.1739361186540579,0.1824819188477989,0.848576899832344,0.4392082371154228,0.3610042917090134,0.2798158857192469,0.4781433860833392,-0.1158690208119636,0.2510372382337602,0.1791168462712596,-0.03582338070299394,792.5641025641025,799.0109890109891,807.8754578754579,801.4285714285714,972.6739926739928,-0.269836,0.020874,0.966614,2.340240,-5.495453,-2.818756,1,1,1,1,1,50.000000
2021-04-25 22:33:47.094,,,,,,,,,,,,,,,,,,,,,,,,,,,,,,,,,,,,,,/muse/elements/blink
2021-04-25 22:33:47.860,0.9048164917247391,1.073770822813531,1.459965010813211,0.840106950535367,0.5459627654577607,0.6155123685616413,0.9633610862487464,0.3091581622823109,0.8896119832529373,0.5910902075830652,0.6101181308112155,0.8497153743568069,0.518707806700543,0.378535321506859,0.2506934367718503,0.527113481213504,-0.02472014699169606,0.1821302049066323,0.01647800867546689,0.1150166312421246,812.3076923076924,804.6520146520147,794.1758241758242,801.8315018315019,748.6446886446887,-0.236938,0.025757,0.976990,5.263672,-1.315918,-1.375732,1,1,1,1,1,50.000000
2021-04-25 22:33:48.855,0.6110791481436056,1.032104144440594,1.444599899228796,0.1335250512146611,0.5747837217135225,0.5899310084010893,0.9250077716116816,0.3331203671617027,0.5963060047737666,0.5826184521686001,0.6886952559447204,0.6813097981465462,0.6234155437209891,0.4348588168857142,0.2400919451824319,0.457398736764621,-0.05830264466828506,0.007724742959407854,-0.1185098557678324,0.04968788758154126,838.0952380952381,810.6959706959707,790.1465201465202,823.992673992674,935.2014652014652,-0.241882,0.034241,0.971436,4.620667,-3.708496,-0.770111,1,1,1,1,1,50.000000
2021-04-25 22:33:49.615,,,,,,,,,,,,,,,,,,,,,,,,,,,,,,,,,,,,,,/muse/elements/blink
2021-04-25 22:33:49.864,0.5801596371858057,0.5491743516631677,0.7932177491382422,0.3060431288098536,0.4472819055051222,0.6154181198819737,0.5946617877092991,0.3489327440324082,0.5744690317496409,0.7484785129606725,0.5290760852373237,0.6133802662248601,0.5226848085955386,0.4613732630025986,0.3910431427499357,0.4781125536454474,0.04874038919509378,0.1100978133708055,0.05025208193004332,0.1861000729981188,795.7875457875458,806.2637362637363,804.2490842490843,794.1758241758242,626.5567765567765,-0.249634,0.029907,0.972351,4.934692,-3.237457,-0.957031,1,1,1,1,1,50.000000
2021-04-25 22:33:50.863,1.170003852727991,0.9428336308771259,1.273233685068495,0.5607783775724909,0.6693454453257704,0.9340203372557666,0.9154798162711618,0.7331024423723443,0.6173995755474875,0.8366723543340768,0.762236641894751,0.8268911679346452,0.3323505440465925,0.4959343291893384,0.3953983111974687,0.5385644362038139,-0.06206834555096252,0.2969531439091908,0.2335692109681635,0.1273726849278803,809.0842490842491,789.3406593406594,806.6666666666667,810.2930402930403,680.952380952381,-0.252502,0.031067,0.968811,4.658051,-3.020630,-0.560760,1,1,1,1,1,50.000000
2021-04-25 22:33:51.735,,,,,,,,,,,,,,,,,,,,,,,,,,,,,,,,,,,,,,/muse/elements/blink
2021-04-25 22:33:51.856,1.319676326348856,0.9158812689771353,1.004488105958142,1.168960564370827,0.8637801061606256,0.6363655515600736,0.4701852211052733,0.8809428790492132,1.173331323337099,0.6899689339441716,0.7598935700907492,1.126189133815319,0.4658677724985848,0.4389376992321225,0.3178970292330496,0.6373856684555379,-0.04081909724714401,0.2580008076948181,0.05791129865780369,0.08932341434664581,836.0805860805862,787.7289377289378,801.4285714285714,834.8717948717949,848.5714285714286,-0.248657,0.031799,0.973694,4.530945,-2.968292,-0.882263,1,1,1,1,1,50.000000
2021-04-25 22:33:52.855,1.510533720566452,1.160776112246809,0.7594676543529263,1.440746298649829,0.9913485638661036,0.8305810818989983,0.3947328619070805,1.058691385913987,1.144606334779522,0.7243505069088151,0.2722237791093319,1.125971389070694,0.4557850382615833,0.3320237920275322,0.3430504351485122,0.6693450566748583,-0.02735877564384387,0.2404841879275806,0.04861102516825066,0.08960373550510203,817.948717948718,786.1172161172161,789.7435897435897,824.3956043956044,651.1355311355312,-0.252869,0.034302,0.971619,4.486084,-2.758942,-1.114044,1,1,1,1,1,50.000000
2021-04-25 22:33:52.962,,,,,,,,,,,,,,,,,,,,,,,,,,,,,,,,,,,,,,/muse/elements/blink
2021-04-25 22:33:53.859,1.510533720566452,0.9433718348902418,0.7699802045090161,1.440746298649829,0.9913485638661036,0.7751359667250816,0.2922430386439819,1.058691385913987,1.144606334779522,0.5331664415396699,0.2625000194335908,1.125971389070694,0.4557850382615833,0.27583842378898,0.2851781415934126,0.6693450566748583,-0.02735877564384387,0.3384859127207017,0.1415335024918996,0.08960373550510203,805.8608058608058,787.3260073260074,805.4578754578755,820.3663003663004,708.3516483516484,-0.252869,0.034790,0.968445,4.471130,-2.773895,-0.717773,1,1,1,1,1,50.000000
2021-04-25 22:33:54.854,0.3889018067886165,0.741065433525014,0.9581244994123408,0.3222841018753608,0.7067631310929862,0.450167076701256,0.2384183659443281,0.2974608509131744,0.8217076376834114,0.5483118184606013,0.3445814357797619,0.8426033396292172,0.364106524078909,0.4358982580249999,0.1496993132048774,0.5869561936213106,-0.001057321297434716,0.2520745847893073,0.1385460313170057,0.2630818816891587,831.2454212454213,796.1904761904763,806.2637362637363,837.6923076923077,816.7399267399268,-0.249268,0.032837,0.970947,4.725342,-2.145844,-1.308441,1,1,1,1,1,50.000000
2021-04-25 22:33:55.299,,,,,,,,,,,,,,,,,,,,,,,,,,,,,,,,,,,,,,/muse/elements/blink
2021-04-25 22:33:55.854,0.9653936284988393,1.16891300232693,1.350108979037751,0.6270143767583746,0.9643895917099325,1.079111749607706,0.5938845542068089,0.4210922036982908,0.8226537131804855,1.026322501511659,0.6307593632819631,0.8492824548490381,0.3997528078058052,0.4604430816205513,0.4182308791351504,0.4905895758831781,0.09385364902011538,0.1470038227415189,0.00702122102423696,0.3725168781949442,817.5457875457876,801.4285714285714,811.0989010989011,832.4542124542124,1002.490842490843,-0.255920,0.032471,0.973145,4.448700,-2.504730,-0.485992,1,1,1,1,1,50.000000
2021-04-25 22:33:56.853,0.9126846755254907,1.080472158512055,0.7773066041151468,0.8059504552077246,0.8216035433227453,1.021379111863912,0.3348719421050531,0.5470011604506108,0.2527496095351605,1.03313351116887,0.5663245339560173,0.7822501845746758,0.3146091658036014,0.2910682167536114,0.4656834872592102,0.6797997227360675,0.2434966536867934,0.2552712710994294,0.07878762501992675,0.2924260820158588,813.1135531135532,817.1428571428571,795.7875457875458,800.6227106227107,742.6007326007326,-0.249756,0.032837,0.963928,4.284210,-3.902893,-0.762634,1,1,1,1,1,50.000000
2021-04-25 22:33:57.854,0.7746530575414717,0.4681489818115456,0.8885541650475978,0.5323464473048415,0.8050506049572579,0.3413705739930423,0.3626525900721858,0.8122667889992606,0.9213505364381391,0.7015527064644881,0.596265860588874,0.8028798007007083,0.3267115456654883,0.4499842717259264,0.3373866638940516,0.5559053273556083,0.1787248435315323,0.136726828892539,0.03826880429453468,0.2700551844731119,819.1575091575091,796.5934065934066,807.4725274725275,826.007326007326,835.6776556776557,-0.253784,0.030334,0.963745,4.889832,-3.686066,-0.807495,1,1,1,1,1,50.000000
2021-04-25 22:33:58.147,,,,,,,,,,,,,,,,,,,,,,,,,,,,,,,,,,,,,,/muse/elements/blink
2021-04-25 22:33:58.854,0.7556695463990422,1.098190984117694,1.235688650297543,0.2778195990298697,0.8596977605608094,0.9458456746592139,0.7629280848322764,0.976974343002258,0.9209303604217211,0.8582497212448821,0.6989072119092257,0.4881844378958341,0.2747600087145817,0.3006896254447533,0.462431307555433,0.3949175926648891,0.0543277115865502,0.167138273564027,0.1267723731680628,0.2188048454321608,810.2930402930403,795.7875457875458,805.4578754578755,824.7985347985348,965.8241758241759,-0.255432,0.034119,0.972656,4.269257,-2.676697,-1.166382,1,1,1,1,1,50.000000
2021-04-25 22:33:59.853,1.202629331696687,1.168913459068241,1.166421640466096,0.4847774007182891,0.4345037204901848,0.8687414524322535,0.8196360156129089,0.1577367480635876,0.5074916130589948,0.848518685637172,0.6716145384364632,0.6220357588539454,0.2253090845204953,0.2726650633529542,0.4874099477282013,0.4456638902834744,0.3536801002940645,0.1548425935547065,0.1596307575477139,0.3856032107971077,809.8901098901099,793.3699633699634,812.3076923076924,814.3223443223443,724.8717948717949,-0.255066,0.030640,0.972412,4.874878,-2.579498,-1.143951,1,1,1,1,1,50.000000
2021-04-25 22:34:00.587,,,,,,,,,,,,,,,,,,,,,,,,,,,,,,,,,,,,,,/muse/elements/blink
2021-04-25 22:34:00.853,1.051794540915824,0.9822814125597004,1.068391696222305,0.5283804775407759,0.4874304197133455,0.5572792590313099,0.7275384913207648,0.3912359947189953,0.840653716654653,0.5700670539709032,0.9848801920130924,0.6901104469675232,0.4118715007848678,0.3544012715771029,0.5044726305741167,0.4782470457135511,0.2414594389378314,0.2307811889358402,0.08113782489718278,0.4112020384453337,836.0805860805862,800.6227106227107,803.4432234432235,832.4542124542124,947.2893772893773,-0.256165,0.030090,0.969666,4.687958,-2.579498,-0.934601,1,1,1,1,1,50.000000
2021-04-25 22:34:01.813,,,,,,,,,,,,,,,,,,,,,,,,,,,,,,,,,,,,,,/muse/elements/blink
2021-04-25 22:34:01.853,0.9934433428435845,0.9460335610215038,1.242076876302753,0.831001004863555,0.7932547449380478,0.7297350584002484,0.9546417029292698,0.7554290996704472,0.9110594100142586,0.6858034834793959,0.9631615617696336,0.7523371062112971,0.5897494741349679,0.3337698403138949,0.4151286336586199,0.6372467338384731,-0.06108886075550578,0.2933566980962599,0.04436662658324479,0.3882629568675747,857.8388278388279,786.5201465201466,784.1025641025641,876.7765567765568,931.5750915750916,-0.258179,0.027100,0.974060,4.433746,-1.921539,-0.732727,1,1,1,1,1,50.000000
2021-04-25 22:34:02.853,0.9934433428435845,1.299464658860012,1.21722757501707,0.831001004863555,0.7932547449380478,0.9947083743658566,0.7599687959086118,0.7554290996704472,0.9110594100142586,0.6884891365800586,0.5380729043291244,0.7523371062112971,0.5897494741349679,0.2348983369439278,0.2682987660161368,0.6372467338384731,-0.06108886075550578,0.03317994676475829,0.006976190480397966,0.3882629568675747,804.2490842490843,793.3699633699634,793.7728937728938,793.3699633699634,649.92673992674,-0.256226,0.028198,0.966492,4.276733,-3.416901,-1.420593,1,1,1,1,1,45.000000
2021-04-25 22:34:03.730,,,,,,,,,,,,,,,,,,,,,,,,,,,,,,,,,,,,,,/muse/elements/blink
2021-04-25 22:34:03.855,0.8425016799768611,0.836608556736529,0.6452752987716749,0.5710779924316519,0.556494653131641,0.5137025505186928,0.1356193187033907,0.06767465546998001,0.5574214973073389,0.3388253089576637,0.243283263096174,0.5484518580870915,0.3592348236271466,0.2986357321426777,0.4167409895378346,0.5528856031999029,-0.1235483491414123,0.180984436673556,0.2336019679761855,0.1256449428926331,817.948717948718,799.0109890109891,786.1172161172161,814.3223443223443,837.2893772893773,-0.265015,0.024597,0.968018,4.224396,-1.839294,-1.420593,1,1,1,1,1,45.000000
2021-04-25 22:34:04.765,,,,,,,,,,,,,,,,,,,,,,,,,,,,,,,,,,,,,,/muse/elements/blink
2021-04-25 22:34:04.868,0.9784759359352281,1.110407674980343,1.005555057784089,0.7748417576329844,0.5710878908759986,0.7629715390485861,0.5231410770681125,0.08571733301156403,0.4380021243815195,0.493211406264465,0.659554611239452,0.4126270899241208,0.4077378988713661,0.4538410014883987,0.3998264392253872,0.4763781406657748,0.02137344452205963,0.2558261957060754,0.1765683151369652,0.1917031950863497,790.952380952381,796.996336996337,809.4871794871796,801.8315018315019,712.7838827838829,-0.280518,0.021545,0.971008,4.583282,-1.951447,-1.420593,1,1,1,1,1,45.000000
2021-04-25 22:34:05.853,0.9784759359352281,1.309575664816399,0.7892335390031381,0.7748417576329844,0.5710878908759986,0.9626956592320005,0.2276788344353989,0.08571733301156403,0.4380021243815195,0.4477963261845835,0.3075855982150771,0.4126270899241208,0.4077378988713661,0.4344906455273516,0.3338047442380058,0.4763781406657748,0.02137344452205963,0.3591070459924985,0.1200630964698888,0.1917031950863497,797.3992673992674,803.8461538461539,798.6080586080586,794.981684981685,621.3186813186813,-0.259094,0.022644,0.963196,4.927216,-2.325287,-0.852356,1,1,1,1,1,45.000000
2021-04-25 22:34:06.853,0.7143826439510866,0.6088951927882501,0.2781954787609175,0.5809347327656265,0.6864208881418736,0.03305923530823695,-0.1346320876197674,0.4968913705388084,0.7073216282809381,0.3749588606528974,0.2195808271178465,0.584449445967831,0.4332953327345902,0.4155975319756468,0.3509506127632698,0.5990180451817163,-0.03231796754716799,0.1468754087858591,0.2361454733386412,0.221472735377165,814.3223443223443,798.6080586080586,809.0842490842491,807.8754578754579,792.5641025641025,-0.266663,0.033447,0.971680,4.650574,-2.953339,-0.814972,1,1,1,1,1,45.000000
2021-04-25 22:34:07.853,0.9661471422674632,0.5718850215907685,0.2745884969157578,0.7123818794412663,0.7401180270466825,0.2042211496271706,0.1618048027190958,0.3958255955554461,0.7843920935564931,0.5003270058199162,0.4123497264944124,0.6531930414463251,0.4069635739403336,0.3513116328366412,0.3340073539442299,0.5612346287076935,0.1726857705164699,0.1622722200148634,0.1203452660779692,0.2285864765225971,830.8424908424909,799.0109890109891,801.025641025641,828.4249084249085,917.4725274725275,-0.265503,0.018494,0.967712,1.996307,-2.773895,-1.906586,1,1,1,1,1,45.000000
2021-04-25 22:34:08.186,,,,,,,,,,,,,,,,,,,,,,,,,,,,,,,,,,,,,,/muse/elements/blink
2021-04-25 22:34:08.853,1.424916584558688,1.430814306172075,0.8393172573370618,1.047795330004339,0.8534954634718415,1.20930096245478,0.5775056151456748,0.3673902577313446,0.659807457672664,0.7920616306582573,0.658328314088203,0.4719607729133022,0.4343781833201059,0.3608919129016892,0.4186760150128012,0.5477662304072866,0.2137192469518988,0.2205560494507259,0.06536187369017117,0.2804993622972053,799.0109890109891,790.5494505494506,809.4871794871796,805.8608058608058,566.5201465201466,-0.259033,0.015320,0.964050,4.261780,-2.968292,0.089722,1,1,1,1,1,45.000000
2021-04-25 22:34:09.863,1.434981843698787,1.389001716424462,0.9521392440821591,0.8995214938109589,1.219616779019332,1.144850142236644,0.5702746945656632,0.9928081811936025,1.09643719557135,0.9093044804550232,0.5728191868528201,0.8958309342789214,0.4877545239429819,0.2641299795820105,0.4044115510704833,0.4756368469004943,0.09014156923614859,0.1207698800780732,0.3410466434649061,0.2082195314919997,807.4725274725275,795.3846153846154,809.8901098901099,812.7106227106227,738.1684981684982,-0.265747,0.030762,0.962524,4.254303,-2.886047,-1.704712,1,1,1,1,1,45.000000
2021-04-25 22:34:10.626,,,,,,,,,,,,,,,,,,,,,,,,,,,,,,,,,,,,,,/muse/elements/blink
2021-04-25 22:34:10.855,1.530047285854066,0.9184001995292427,1.029053311543287,1.142942925434047,1.142274416662596,0.7117498367751005,0.6582262650976579,0.885216016776859,1.078451395683714,0.8261622888578262,0.5450707280888136,0.9413103604472656,0.3919194013688081,0.2941099441398603,0.4245397831251984,0.4567792358566746,-0.04377173650405237,0.3055135015516091,0.2808210056204231,0.0816010591330821,800.6227106227107,795.7875457875458,794.5787545787546,811.0989010989011,823.1868131868132,-0.229492,0.008118,0.983582,1.996307,-1.233673,3.222504,1,1,1,1,1,45.000000
2021-04-25 22:34:11.851,0.929042288152086,0.8454121769857981,1.148093387874857,0.8327642560774655,0.6622611232014964,0.4850751493487352,0.83985919606562,0.7681243769059688,0.7574114279846134,0.6386721801385415,0.4590946945894885,0.7925098620874399,0.6586865509327022,0.3388112586072642,0.3174634031364754,0.498623916635708,0.0597712669210773,0.2118200240460242,0.2965838960951696,0.2151691427493365,812.3076923076924,811.5018315018315,795.3846153846154,811.5018315018315,611.2454212454213,-0.237610,0.001770,0.975647,4.979553,-5.278625,-11.289978,1,1,1,1,1,45.000000
2021-04-25 22:34:12.349,,,,,,,,,,,,,,,,,,,,,,,,,,,,,,,,,,,,,,/muse/elements/blink
2021-04-25 22:34:12.858,0.6964362843055421,0.8824893562589992,1.241431786778528,0.4775323045915707,0.8764541208784418,0.7102106147751266,0.8758612849421472,0.8661013907618124,0.8520529666837162,0.7019627570318313,0.6692741857031613,0.6844006672545702,0.6528970466033912,0.3647790237896378,0.3603319551033901,0.5064151448276163,0.07274454096960052,0.3243077692656272,0.2763012585102442,0.1817084772790957,807.4725274725275,787.7289377289378,806.6666666666667,811.5018315018315,708.7545787545788,-0.231445,-0.008057,0.980225,5.136566,-2.474823,-1.300964,1,1,1,1,1,45.000000
2021-04-25 22:34:13.857,0.4794737521353675,0.8806079293056975,1.291262894734603,0.6920609840783724,0.3476152999400757,0.7620985688287346,0.8280251987878867,0.4762859418365271,0.4029709572440341,0.6157533533898932,0.683096816737316,0.2899761809519036,0.5209373179167837,0.3607566389523991,0.4683105087257058,0.5966795811380904,0.1206292432391722,0.2241438474382803,0.2438035517404282,0.3380984189529131,799.0109890109891,796.996336996337,800.6227106227107,803.040293040293,881.2087912087912,-0.218933,-0.008606,0.981384,4.201965,-3.125305,-1.547699,1,1,1,1,1,50.000000
2021-04-25 22:34:14.705,,,,,,,,,,,,,,,,,,,,,,,,,,,,,,,,,,,,,,/muse/elements/blink
2021-04-25 22:34:14.852,0.8722411082748078,0.8006042629882193,1.137305528701394,0.9280883192024705,0.4499078392030533,0.3664645333476549,0.5170796267999387,0.5276992457692301,0.5520794009876132,0.463651281379696,0.6416817060855534,0.7382890877907846,0.4141043392548422,0.3540930013044038,0.3847907916379988,0.5589596226008964,0.01346218037906706,0.2867478109404053,0.09901155144637983,0.3260500797489596,797.3992673992674,787.3260073260074,807.8754578754579,808.2783882783883,640.2564102564103,-0.221191,-0.011169,0.975952,4.897308,-2.213135,-0.919647,1,1,1,1,1,50.000000
2021-04-25 22:34:15.860,1.00899496540499,0.7418892304309337,1.310240497556977,1.03921697662519,0.5294631759647158,0.6315203410625257,0.8092565875780254,0.6322536122472145,0.3521594500554388,0.6293452134482059,0.7616064777918089,0.5429900445416895,0.3759228507496449,0.4053325731316236,0.2615335209042103,0.498058380437056,-0.1063159172709068,0.2037545492159999,0.0272720489337072,0.17342806136803,799.8168498168499,800.6227106227107,798.6080586080586,786.5201465201466,707.948717948718,-0.232910,0.001831,0.977478,4.979553,-4.291687,-0.672913,1,1,1,1,1,50.000000
2021-04-25 22:34:16.859,0.2832425024251454,0.5418174438082517,0.7238196129308463,0.703541199498747,0.4263254225801713,0.2737041672778735,0.3919336821427038,0.6185496455665707,0.6129083806525211,0.3823871498948305,0.6472410988588491,0.6961734938994556,0.3363338937618082,0.2788017552133235,0.4777448427230262,0.459534567580988,0.03246009353562817,0.1120883640190255,0.1255125169902265,0.1808179223586319,800.2197802197802,802.2344322344322,806.6666666666667,813.1135531135532,933.992673992674,-0.225464,-0.000183,0.973633,5.121613,-2.310333,-1.076660,1,1,1,1,1,50.000000
2021-04-25 22:34:17.841,,,,,,,,,,,,,,,,,,,,,,,,,,,,,,,,,,,,,,/muse/elements/blink
2021-04-25 22:34:17.852,0.3560942323470679,0.873516937050658,1.001025673702947,0.466277128418319,0.3594889119816236,0.4315167029451044,0.6783480326322198,0.7351207975237459,0.7673644635782932,0.6324360572204423,0.6623327577283734,0.7303183707243578,0.4239772168363727,0.365159151920545,0.5710154984326958,0.5217003752096444,0.3105300473977497,0.09281723821009895,0.1055139054794338,0.2046431027664343,816.7399267399268,799.4139194139194,800.6227106227107,835.6776556776557,663.2234432234433,-0.230042,-0.003479,0.979004,4.628143,-2.923431,-1.555176,1,1,1,1,1,50.000000
2021-04-25 22:34:18.852,0.8357749303655096,1.285696772219428,1.176863716154517,0.8047021031817896,0.5177953934044032,0.9565838799261404,0.7573258886431188,0.9303231400631458,0.6522753093516469,0.9336042168574639,0.5692285778393669,0.7103874129003693,0.399941243766483,0.4460086022411685,0.4277535925492056,0.5366683185138375,0.2479155293427717,0.06328549118507253,0.2258006377370254,0.4136210620179759,799.8168498168499,804.2490842490843,809.4871794871796,797.8021978021978,742.6007326007326,-0.232483,-0.004456,0.976562,4.687958,-2.512207,-1.158905,1,1,1,1,1,50.000000
2021-04-25 22:34:19.859,0.4656772946380911,0.7046871774464214,0.6138147053520329,0.4391361404437411,0.2836295820228886,0.3688080576153965,0.403460636533031,0.3236688925958839,0.5950185281929904,0.7522491499790007,0.4172940206150978,0.6655429791461898,0.2503977610189609,0.3807654295062238,0.4415270478800782,0.5078288317175859,0.05086808129261437,0.09050092783982371,0.1045075974495295,0.1759944805804353,815.5311355311355,814.7252747252747,770.8058608058608,817.5457875457876,965.0183150183151,-0.228882,-0.003174,0.975830,4.717865,-3.641205,-1.241150,1,1,1,1,1,50.000000
2021-04-25 22:34:20.856,1.024904613811177,0.3878251275461284,0.9450691591089244,1.037643068467504,0.7818696904324316,0.3218090561572224,0.4568998197168421,0.7481344821736761,0.6831643265624062,0.5300030431903775,0.5353614875892377,0.788144524910358,0.2290314650208601,0.2723422428231855,0.437411533553786,0.5275783387321766,-0.03588706675508915,0.1160859664208048,0.07244886421776006,0.03205426310287169,809.4871794871796,844.5421245421246,758.7179487179487,784.5054945054945,718.021978021978,-0.223755,0.000610,0.976868,4.583282,-2.893524,-0.949554,1,1,1,1,1,50.000000
2021-04-25 22:34:21.492,,,,,,,,,,,,,,,,,,,,,,,,,,,,,,,,,,,,,,/muse/elements/blink
2021-04-25 22:34:21.852,1.321474850010588,1.071408682200665,1.313547956887327,1.344758551392302,1.109905249809343,0.801531902640978,0.7649318622079194,1.013470341520345,0.608867521658352,0.6079953666658998,0.7749111633501742,0.7944987246722953,0.3278154638356139,0.2735009274687659,0.4022734002085484,0.6295816936950343,-0.00890161280571977,0.2048795858923386,0.2166472276563811,0.1718481360306366,800.2197802197802,795.3846153846154,810.6959706959707,806.2637362637363,686.996336996337,-0.227966,-0.000183,0.975708,4.747772,-3.775787,-0.366364,1,1,1,1,1,50.000000
2021-04-25 22:34:22.852,0.3954565590749215,1.163752186582489,1.216842343262126,0.05886712995251903,0.3840474586741595,0.8464452771172949,0.5981330364669001,0.1345309814885053,0.1466399167367958,0.5000195062205975,0.7589386091576081,0.4403299623630212,0.496851074677556,0.2424735456274655,0.4834296889907194,0.685613720118458,-0.2181329012814489,0.4428217211847063,0.4006224170420636,0.2250882038549098,833.2600732600733,798.6080586080586,792.5641025641025,833.2600732600733,937.2161172161173,-0.227722,0.003418,0.977173,4.650574,-3.454285,-0.874786,1,1,1,1,1,50.000000
2021-04-25 22:34:23.858,0.4720407907059275,0.2287067181036649,0.6171506657986318,0.3826700048766307,0.5261473493997494,0.2523781396200614,0.1209277024028658,0.368680165110776,0.422126027677787,0.4845714167943667,0.4859677457046798,0.7435399623693001,0.5024534519796655,0.3527607646374463,0.4246738193967211,0.6054539239982133,-0.1076064598566174,0.2643578209854753,0.3789666437064684,0.2151437019935778,795.7875457875458,796.1904761904763,809.0842490842491,803.4432234432235,665.2380952380953,-0.230469,0.004944,0.979126,4.501038,-3.110352,-1.203766,1,1,1,1,1,50.000000
2021-04-25 22:34:24.851,0.33591798269734,0.6662243091555616,0.9442203724831967,0.4320832675481754,0.5449128026893283,0.3744589580254963,0.6014140074963928,0.5693526564646089,0.6164316536718308,0.6311367341717523,0.7347380699838676,0.8418512752286967,0.5482437139371046,0.4122560998921447,0.4133726246315226,0.6195177393364519,-0.008678067437768812,0.2202977213646771,0.1462032284569655,0.3218540149815327,827.2161172161173,792.967032967033,788.5347985347986,828.021978021978,642.6739926739926,-0.234253,0.006042,0.977661,4.201965,-3.132782,-1.173859,1,1,1,1,1,50.000000
2021-04-25 22:34:24.966,,,,,,,,,,,,,,,,,,,,,,,,,,,,,,,,,,,,,,/muse/elements/blink
2021-04-25 22:34:25.854,0.5438132361684878,1.231355375188362,1.327229927648154,0.7510977729070289,0.314991890932274,0.8859696560396592,0.9380332137298848,0.5930294984905474,0.5344064020669199,0.6580756371675655,0.7750223492862851,0.7684351326187269,0.3619252759271888,0.290141734010306,0.3631120775638277,0.5083163053774221,0.009064874714273573,0.1416803943377752,0.157240592381185,0.4595966297432986,812.7106227106227,796.1904761904763,796.996336996337,824.7985347985348,996.0439560439561,-0.229187,0.006592,0.979065,4.979553,-2.983246,-0.545807,1,1,1,1,1,50.000000
2021-04-25 22:34:26.861,0.4852522656042854,0.720865001074204,0.6395156498578705,0.2487280903110188,0.190204531549111,0.2897398392974092,0.3504193103542561,0.3682908144507179,0.7928093092470758,0.2662297121652322,0.4305657740078123,0.6557838491602809,0.4987015174549801,0.5605028494718766,0.5174451717183026,0.498842066043411,0.02278156263754099,0.1539974705549905,0.2683818142819364,0.3160892632984065,783.2967032967033,795.7875457875458,810.6959706959707,803.8461538461539,734.1391941391942,-0.234680,0.005615,0.982300,4.478607,-2.497253,-0.538330,1,1,1,1,1,50.000000
2021-04-25 22:34:27.851,0.5636454053481078,0.5415199206168617,0.682724067405289,0.3723084713974064,0.5100809940022509,0.1260782530775434,0.3975931027485514,0.5681736998535278,0.8672693346879443,0.6388977126733624,0.7124875379594096,0.7477357066634036,0.5501113188822349,0.5211949283703456,0.5634151809178068,0.5808491256513554,0.1653172239726603,0.1242612766383857,0.3427504013152607,0.3856979640722819,821.978021978022,793.3699633699634,805.0549450549451,815.1282051282052,856.2271062271062,-0.229126,0.007690,0.978088,4.987030,-2.198181,-0.852356,1,1,1,1,1,50.000000
2021-04-25 22:34:28.202,,,,,,,,,,,,,,,,,,,,,,,,,,,,,,,,,,,,,,/muse/elements/blink
2021-04-25 22:34:28.850,0.759152907016701,1.135034293372851,1.185347028803508,0.5876756197207835,0.5948593474397601,0.5305760556058697,0.7586084568317359,0.6434361318599939,0.6788503972067637,0.7048823305358626,0.7556815817908477,0.6318052029379763,0.4343058616829434,0.3998013125898379,0.4248757095843454,0.5051475103557532,0.2386012366066941,0.1124480242178063,0.2043415348073587,0.4391969943728406,818.7545787545788,793.7728937728938,808.2783882783883,839.3040293040293,976.7032967032967,-0.230713,0.005859,0.976074,4.456177,-2.758942,-0.740204,1,1,1,1,1,50.000000
2021-04-25 22:34:29.856,0.9665382153687744,1.029201673997059,1.073291871971604,0.5589199626129747,0.516739286928946,0.5198666706965241,0.6855793631214755,0.6547526266085864,0.8266027591399823,0.6343414547589868,0.7474950596428686,0.8226045680068487,0.3595166979076992,0.3688057427439763,0.470731377904709,0.6171611259348284,-0.008594627893814152,0.1298201676371656,0.2035121400647219,0.05346417123888354,794.1758241758242,788.1318681318681,790.5494505494506,797.3992673992674,712.3809523809524,-0.237427,0.003357,0.978455,4.321594,-2.639313,-1.443024,1,1,1,1,1,50.000000
2021-04-25 22:34:30.851,1.058310412348864,0.8356316096361762,0.8764978262457017,0.6976629317777665,0.7324374565507604,0.5604419356394621,0.6953280098814212,0.6744459566116354,0.9474075014183121,0.6117986396047456,0.7748127425880915,0.7768149626682338,0.3928121425686688,0.4065725633994573,0.3024158667403347,0.6136330951651752,0.1123482309567781,0.1097329450951035,0.08723023360507859,0.2512813383581194,832.4542124542124,799.8168498168499,813.919413919414,829.2307692307693,802.2344322344322,-0.233643,0.011841,0.973328,5.016937,-2.594452,-0.785065,1,1,1,1,1,50.000000
2021-04-25 22:34:31.435,,,,,,,,,,,,,,,,,,,,,,,,,,,,,,,,,,,,,,/muse/elements/blink
2021-04-25 22:34:31.855,0.5114314375134559,1.271170191580786,1.101470950069565,0.5586080498036782,0.7337775667998027,0.5558086133386356,0.6030407569161449,0.4276278791771809,0.7877922875908203,0.3755214307518518,0.3059811247830398,0.7083915740197745,0.372056823407996,0.4023466103226689,0.379395222359275,0.4668464518977385,0.1975638827846939,0.1954271431215788,0.1606857403655143,0.2972973805490939,825.2014652014652,809.0842490842491,794.5787545787546,821.978021978022,965.4212454212454,-0.274963,0.042847,0.956177,11.080627,-0.717773,-12.516174,1,1,1,1,1,50.000000
2021-04-25 22:34:32.851,0.4411497069154957,1.763467258211307,1.405918223801699,0.3608661120011156,0.6867029906537584,0.7835699991622301,0.7226513253306648,0.3485797099969508,0.6915965792987854,0.2334446553758799,0.4029992623847675,0.6190601009582026,0.3136688578516513,0.3730555176786937,0.3548214742500537,0.4533219485722427,0.1444501559607536,0.2388501747626196,0.17107560647508,0.2858130413243231,797.8021978021978,803.8461538461539,815.1282051282052,801.8315018315019,683.3699633699634,-0.307495,0.022644,0.953003,6.684265,-3.222504,-2.893524,1,1,1,1,1,50.000000
2021-04-25 22:34:33.850,0.5331078020329302,0.03700293841053617,0.3983256655370021,0.5079016555230152,0.4234764042063588,-0.02176316480349314,0.2844309655990691,0.3516277334383566,0.5873445993737509,-0.1803342623323985,0.5704439545447648,0.4371812258404962,0.5828785607733582,0.3672694178712668,0.4527461538524931,0.6086561640557412,0.3251549931425948,0.1781393100574901,0.09994185095827657,0.3636169544301463,875.5677655677656,801.025641025641,817.948717948718,874.3589743589744,813.1135531135532,-0.301636,0.067444,0.961365,1.622467,-8.269348,6.863708,1,1,1,1,1,50.000000
2021-04-25 22:34:33.871,,,,,,,,,,,,,,,,,,,,,,,,,,,,,,,,,,,,,,/muse/elements/blink
2021-04-25 22:34:34.857,0.7265722976981802,0.8810735646281407,1.254556157035543,0.6482892810665518,0.3453160997252294,0.3111666433199111,0.5499347714129611,0.298748534288241,0.5073221224715387,0.1859655151785328,0.5556090200597527,0.2420445850768946,0.4123247608053511,0.3008005069087937,0.3423656722690739,0.6487971202230188,0.1836314268940711,0.1507006040042594,0.05560592872156028,0.4677861758091548,803.4432234432235,800.6227106227107,806.6666666666667,810.2930402930403,963.4065934065934,-0.243896,0.061218,0.962280,7.581482,1.757050,-0.149536,1,1,1,1,1,50.000000
2021-04-25 22:34:35.099,,,,,,,,,,,,,,,,,,,,,,,,,,,,,,,,,,,,,,/muse/elements/blink
2021-04-25 22:34:35.851,0.7951474509010039,1.554748779335223,1.667226168527572,0.723236518352228,0.3427983847742268,1.073473351091861,1.130206002905519,0.2974385804511755,0.5073221224715387,0.6299533107000707,0.5965571141634098,0.2219574919782159,0.3934762550965301,0.3026100387869837,0.3779823003969295,0.6331673919454942,0.1417635524903939,0.1884252278003051,0.1011153352818226,0.4832101793341,832.0512820512821,825.2014652014652,832.4542124542124,821.5750915750916,665.2380952380953,-0.326904,0.064636,0.948608,2.788849,-0.680389,3.080444,1,1,1,1,1,50.000000
2021-04-25 22:34:36.851,1.090685320713465,1.451749541278355,1.636538530893346,1.130793906108779,1.342064422073977,1.199568214645516,1.110204557730738,1.099975368809581,0.7437823962667736,0.739594542318193,0.9095357507371483,0.8426712327789055,0.6919669584931747,0.3685537990746935,0.4561642669282968,0.6970836250627621,0.1991226170397538,0.1997092965642691,0.09190484209345584,0.2093057236059732,828.021978021978,788.5347985347986,805.0549450549451,827.6190476190476,768.7912087912088,-0.331482,0.057129,0.948486,5.099182,-2.153320,0.381317,1,1,1,1,1,50.000000
2021-04-25 22:34:37.851,0.9638717971854123,1.038095904800686,1.191009366081464,0.9656696190255553,1.024225220719958,0.8948000339536026,0.748800020836081,0.8603002933656584,0.8178936035625768,0.7225933565086831,0.9214109157167032,0.8314082310985137,0.6033545904766977,0.3927887152333004,0.433760741158024,0.643460757923326,0.1208551689723865,0.1219665564347966,0.08857030511052459,0.186827502677291,890.0732600732601,780.4761904761905,794.1758241758242,896.9230769230769,957.3626373626374,-0.328125,0.064758,0.948425,5.443115,-1.570129,-0.770111,1,1,1,1,1,50.000000
2021-04-25 22:34:37.860,,,,,,,,,,,,,,,,,,,,,,,,,,,,,,,,,,,,,,/muse/elements/blink
2021-04-25 22:34:38.859,1.026655928286555,1.409156829758926,1.168873906244905,0.9278881439819685,0.7371238758562292,1.011346562664187,0.6509969394288622,0.8149928837080843,0.4547975458630323,0.6888085792062211,0.7555403360763669,0.478506750166121,0.4498957894850078,0.3269010156369436,0.267195212038159,0.6421632004479241,0.05921175736512702,0.08812377492864969,0.2553345658885529,0.1249449023306576,796.1904761904763,784.1025641025641,790.1465201465202,796.1904761904763,746.2271062271062,-0.327087,0.065491,0.950928,4.725342,-3.080444,-0.306549,1,1,1,1,1,50.000000
2021-04-25 22:34:39.583,,,,,,,,,,,,,,,,,,,,,,,,,,,,,,,,,,,,,,/muse/elements/blink
2021-04-25 22:34:39.851,0.3139600809967708,0.8794630097369547,0.8832291687947642,0.4110033837717618,0.2262050261743732,0.605851204941072,0.5687464927606485,0.0466901104280379,0.5832717621246672,0.6287272042882754,0.6042741823857495,0.2595434225375007,0.4334053034032027,0.3284086625796394,0.4465207589036573,0.2846442628245626,0.2050410531527888,0.2766132429662765,0.2665772683741048,0.2395578681300627,822.3809523809524,793.3699633699634,800.2197802197802,821.978021978022,755.8974358974359,-0.320618,0.067688,0.945007,4.755249,-1.973877,-1.256104,1,1,1,1,1,50.000000
2021-04-25 22:34:40.850,0.2394361941941016,0.5280892340945315,1.169546917709805,0.2865803630049594,0.1976134627891627,0.6572312303389459,0.8532089607800957,0.3374044314485471,0.4947998521170721,0.5069617099756258,0.632088680996198,0.6194508686101837,0.4437489020638534,0.4687891483092915,0.5052306397935687,0.5159664392360361,0.190385946436059,0.3241790796724091,0.2774318021659591,0.5819246261491938,820.7692307692308,794.981684981685,793.7728937728938,810.2930402930403,990,-0.318054,0.064209,0.946472,3.992615,-4.149628,-1.405640,1,1,1,1,1,50.000000
2021-04-25 22:34:41.415,,,,,,,,,,,,,,,,,,,,,,,,,,,,,,,,,,,,,,/muse/elements/blink
2021-04-25 22:34:41.859,0.9527387642862466,1.284758857148923,1.119145964656043,0.7985070608073589,0.7706218752559209,1.072009385130547,0.7669227641046713,0.9125308976667655,0.9979525979055615,0.9200973117875797,0.8479432347734397,1.066173446483742,0.5422164716362022,0.4555507597890521,0.4649202312866624,0.4051233001685853,0.04786057767190464,0.4256577450221845,0.3297689683415707,0.4488391582539157,788.5347985347986,793.7728937728938,803.8461538461539,795.3846153846154,674.9084249084249,-0.323608,0.059265,0.950684,4.530945,-3.222504,-0.605621,1,1,1,1,1,50.000000
2021-04-25 22:34:42.852,0.404513555785474,1.305321929322307,0.7522132939143297,0.1900945377055317,0.6251027789811671,1.058176362045025,0.4552822874410685,0.4163006791649285,0.4403423486241865,0.9182100009613293,0.7401889797401215,0.5416095899013841,0.6545961206680416,0.3130349830241446,0.3327379323844246,0.596520650953833,-0.1589040817323953,0.3163632143666715,0.2255598740463811,-0.08712759863950867,809.0842490842491,797.3992673992674,802.6373626373627,804.2490842490843,762.3443223443223,-0.324829,0.066711,0.950073,4.867401,-2.796326,-1.173859,1,1,1,1,1,50.000000
2021-04-25 22:34:43.614,,,,,,,,,,,,,,,,,,,,,,,,,,,,,,,,,,,,,,/muse/elements/blink
2021-04-25 22:34:43.849,0.6499572691915106,0.7595145023229462,1.037920729309405,0.5161077602816246,0.5733119285780739,0.6950300281263427,0.6805254659756316,0.4381010211339059,0.517151849968547,0.8628992198675238,0.7254327786451976,0.8708650553323322,0.611501335980025,0.2894256482585046,0.3022517088256172,0.5559443615456168,-0.0005809199179411747,0.127683679813482,0.177835755482131,0.136945650500212,823.5897435897436,794.981684981685,797.3992673992674,823.992673992674,942.4542124542124,-0.320068,0.063782,0.949402,4.777679,-2.706604,-0.650482,1,1,1,1,1,50.000000
2021-04-25 22:34:44.854,0.6919750805775191,1.188316757057316,1.152340834537681,0.8011566682507586,0.8536993150266976,1.080076531984274,0.7787904176972152,0.5135873061632512,0.8241859001041445,0.9284116378495728,0.7701091306990087,0.8587504337063256,0.626254859071392,0.5117101322278964,0.361160925581288,0.5130778073197971,0.1978111139315248,0.2342020883371394,0.1520705619632648,0.328538938608164,801.4285714285714,795.7875457875458,799.8168498168499,789.7435897435897,620.5128205128206,-0.320862,0.065369,0.947388,5.420685,-2.235565,-0.732727,1,1,1,1,1,45.000000
